Kanal;   Energie(keV); Impulse
       1;    16.9617;         8219   
       2;    17.8370;         8389   
       3;    18.7122;         7985   
       4;    19.5875;         7968   
       5;    20.4628;         7660   
       6;    21.3381;         7352   
       7;    22.2133;         7320   
       8;    23.0886;         6989   
       9;    23.9639;         6770   
      10;    24.8392;         6645   
      11;    25.7144;         6280   
      12;    26.5897;         6305   
      13;    27.4650;         6239   
      14;    28.3403;         6121   
      15;    29.2155;         5879   
      16;    30.0908;         5714   
      17;    30.9661;         5762   
      18;    31.8414;         5463   
      19;    32.7166;         5614   
      20;    33.5919;         5620   
      21;    34.4672;         5615   
      22;    35.3425;         5398   
      23;    36.2177;         5331   
      24;    37.0930;         5498   
      25;    37.9683;         5451   
      26;    38.8436;         5320   
      27;    39.7188;         5229   
      28;    40.5941;         5175   
      29;    41.4694;         5092   
      30;    42.3447;         5140   
      31;    43.2199;         5085   
      32;    44.0952;         5207   
      33;    44.9705;         4970   
      34;    45.8458;         5087   
      35;    46.7210;         5086   
      36;    47.5963;         5078   
      37;    48.4716;         5003   
      38;    49.3469;         5006   
      39;    50.2221;         4860   
      40;    51.0974;         5022   
      41;    51.9727;         4944   
      42;    52.8480;         5035   
      43;    53.7232;         5145   
      44;    54.5985;         6168   
      45;    55.4738;         7190   
      46;    56.3491;         5718   
      47;    57.2243;         5055   
      48;    58.0996;         5068   
      49;    58.9749;         5165   
      50;    59.8502;         5038   
      51;    60.7254;         5243   
      52;    61.6007;         5422   
      53;    62.4760;         5847   
      54;    63.3513;         6409   
      55;    64.2265;         7166   
      56;    65.1018;         7490   
      57;    65.9771;         7568   
      58;    66.8524;         7398   
      59;    67.7276;         7204   
      60;    68.6029;         7022   
      61;    69.4782;         6951   
      62;    70.3535;         7009   
      63;    71.2287;         6892   
      64;    72.1040;         6915   
      65;    72.9793;         6901   
      66;    73.8546;         7379   
      67;    74.7298;         8262   
      68;    75.6051;         8213   
      69;    76.4804;         8940   
      70;    77.3557;         9681   
      71;    78.2309;         8324   
      72;    79.1062;         8029   
      73;    79.9815;         9182   
      74;    80.8568;        15939   
      75;    81.7320;        44954   
      76;    82.6073;       144202   
      77;    83.4826;       151751   
      78;    84.3579;        37165   
      79;    85.2331;         8079   
      80;    86.1084;         7260   
      81;    86.9837;         6832   
      82;    87.8590;         5739   
      83;    88.7342;         5037   
      84;    89.6095;         4814   
      85;    90.4848;         4514   
      86;    91.3601;         4303   
      87;    92.2353;         4291   
      88;    93.1106;         4148   
      89;    93.9859;         4305   
      90;    94.8612;         4246   
      91;    95.7364;         4394   
      92;    96.6117;         4310   
      93;    97.4870;         4529   
      94;    98.3623;         4367   
      95;    99.2375;         4435   
      96;   100.1128;         4385   
      97;   100.9881;         4482   
      98;   101.8634;         4429   
      99;   102.7386;         4536   
     100;   103.6139;         4513   
     101;   104.4892;         4611   
     102;   105.3645;         4486   
     103;   106.2397;         4577   
     104;   107.1150;         4622   
     105;   107.9903;         4490   
     106;   108.8656;         4702   
     107;   109.7408;         4664   
     108;   110.6161;         4670   
     109;   111.4914;         4568   
     110;   112.3667;         4647   
     111;   113.2419;         4644   
     112;   114.1172;         4648   
     113;   114.9925;         4659   
     114;   115.8678;         4740   
     115;   116.7430;         4713   
     116;   117.6183;         4775   
     117;   118.4936;         4775   
     118;   119.3689;         4750   
     119;   120.2441;         4774   
     120;   121.1194;         5054   
     121;   121.9947;         4981   
     122;   122.8700;         4936   
     123;   123.7452;         4983   
     124;   124.6205;         4966   
     125;   125.4958;         5027   
     126;   126.3711;         5137   
     127;   127.2463;         5186   
     128;   128.1216;         5130   
     129;   128.9969;         5195   
     130;   129.8722;         5343   
     131;   130.7474;         5331   
     132;   131.6227;         5403   
     133;   132.4980;         5420   
     134;   133.3733;         5508   
     135;   134.2485;         5638   
     136;   135.1238;         5723   
     137;   135.9991;         5879   
     138;   136.8744;         5890   
     139;   137.7496;         5921   
     140;   138.6249;         6150   
     141;   139.5002;         6401   
     142;   140.3755;         6584   
     143;   141.2507;         6593   
     144;   142.1260;         6888   
     145;   143.0013;         6701   
     146;   143.8766;         6862   
     147;   144.7518;         6898   
     148;   145.6271;         6968   
     149;   146.5024;         6917   
     150;   147.3777;         7011   
     151;   148.2529;         7101   
     152;   149.1282;         7313   
     153;   150.0035;         7408   
     154;   150.8788;         7956   
     155;   151.7540;         8235   
     156;   152.6293;         8401   
     157;   153.5046;         8530   
     158;   154.3799;         8842   
     159;   155.2551;         8523   
     160;   156.1304;         8558   
     161;   157.0057;         8496   
     162;   157.8810;         8588   
     163;   158.7562;         8323   
     164;   159.6315;         8351   
     165;   160.5068;         8104   
     166;   161.3821;         9012   
     167;   162.2573;        11857   
     168;   163.1326;        10889   
     169;   164.0079;         8179   
     170;   164.8832;         7242   
     171;   165.7584;         6970   
     172;   166.6337;         6716   
     173;   167.5090;         6760   
     174;   168.3843;         6496   
     175;   169.2595;         6358   
     176;   170.1348;         6356   
     177;   171.0101;         6238   
     178;   171.8854;         6069   
     179;   172.7606;         5942   
     180;   173.6359;         5822   
     181;   174.5112;         5892   
     182;   175.3865;         5764   
     183;   176.2617;         5815   
     184;   177.1370;         5699   
     185;   178.0123;         5592   
     186;   178.8876;         5669   
     187;   179.7628;         5613   
     188;   180.6381;         5566   
     189;   181.5134;         5569   
     190;   182.3887;         5637   
     191;   183.2639;         5329   
     192;   184.1392;         5627   
     193;   185.0145;         5496   
     194;   185.8898;         5504   
     195;   186.7650;         5450   
     196;   187.6403;         5591   
     197;   188.5156;         5485   
     198;   189.3909;         5296   
     199;   190.2661;         5341   
     200;   191.1414;         5403   
     201;   192.0167;         5350   
     202;   192.8920;         5365   
     203;   193.7672;         5543   
     204;   194.6425;         5334   
     205;   195.5178;         5425   
     206;   196.3931;         5414   
     207;   197.2683;         5372   
     208;   198.1436;         5450   
     209;   199.0189;         5511   
     210;   199.8942;         5423   
     211;   200.7694;         5252   
     212;   201.6447;         5308   
     213;   202.5200;         5450   
     214;   203.3953;         5406   
     215;   204.2705;         5478   
     216;   205.1458;         5327   
     217;   206.0211;         5120   
     218;   206.8964;         5076   
     219;   207.7716;         4971   
     220;   208.6469;         4895   
     221;   209.5222;         4574   
     222;   210.3975;         4230   
     223;   211.2727;         4140   
     224;   212.1480;         3953   
     225;   213.0233;         3990   
     226;   213.8986;         3872   
     227;   214.7738;         3774   
     228;   215.6491;         3574   
     229;   216.5244;         3573   
     230;   217.3997;         3574   
     231;   218.2749;         3449   
     232;   219.1502;         3516   
     233;   220.0255;         3503   
     234;   220.9008;         3418   
     235;   221.7760;         3355   
     236;   222.6513;         3295   
     237;   223.5266;         3534   
     238;   224.4019;         4782   
     239;   225.2771;         5700   
     240;   226.1524;         4194   
     241;   227.0277;         3282   
     242;   227.9030;         3177   
     243;   228.7782;         2994   
     244;   229.6535;         3062   
     245;   230.5288;         3016   
     246;   231.4041;         2899   
     247;   232.2793;         2867   
     248;   233.1546;         2783   
     249;   234.0299;         2767   
     250;   234.9052;         2781   
     251;   235.7804;         2675   
     252;   236.6557;         2664   
     253;   237.5310;         2598   
     254;   238.4063;         2581   
     255;   239.2815;         2531   
     256;   240.1568;         2596   
     257;   241.0321;         2640   
     258;   241.9074;         2453   
     259;   242.7826;         2388   
     260;   243.6579;         2340   
     261;   244.5332;         2204   
     262;   245.4085;         2280   
     263;   246.2837;         2235   
     264;   247.1590;         2214   
     265;   248.0343;         2207   
     266;   248.9096;         2194   
     267;   249.7848;         2130   
     268;   250.6601;         2106   
     269;   251.5354;         2125   
     270;   252.4107;         2030   
     271;   253.2859;         2057   
     272;   254.1612;         2045   
     273;   255.0365;         2088   
     274;   255.9118;         2058   
     275;   256.7870;         1958   
     276;   257.6623;         1972   
     277;   258.5376;         1913   
     278;   259.4129;         1913   
     279;   260.2881;         1898   
     280;   261.1634;         1820   
     281;   262.0387;         1894   
     282;   262.9140;         1877   
     283;   263.7892;         1939   
     284;   264.6645;         1846   
     285;   265.5398;         1906   
     286;   266.4151;         1815   
     287;   267.2903;         1768   
     288;   268.1656;         1732   
     289;   269.0409;         1754   
     290;   269.9162;         1732   
     291;   270.7914;         1715   
     292;   271.6667;         1703   
     293;   272.5420;         1718   
     294;   273.4173;         1664   
     295;   274.2925;         1698   
     296;   275.1678;         1710   
     297;   276.0431;         2020   
     298;   276.9184;         7603   
     299;   277.7936;        28056   
     300;   278.6689;        30905   
     301;   279.5442;         9424   
     302;   280.4195;         2595   
     303;   281.2947;         2007   
     304;   282.1700;         1800   
     305;   283.0453;         1756   
     306;   283.9206;         1666   
     307;   284.7958;         1564   
     308;   285.6711;         1568   
     309;   286.5464;         1586   
     310;   287.4217;         1488   
     311;   288.2969;         1589   
     312;   289.1722;         1467   
     313;   290.0475;         1514   
     314;   290.9228;         1490   
     315;   291.7980;         1500   
     316;   292.6733;         1462   
     317;   293.5486;         1509   
     318;   294.4239;         1473   
     319;   295.2991;         1461   
     320;   296.1744;         1407   
     321;   297.0497;         1520   
     322;   297.9250;         1555   
     323;   298.8002;         1464   
     324;   299.6755;         1407   
     325;   300.5508;         1509   
     326;   301.4261;         1534   
     327;   302.3013;         2112   
     328;   303.1766;        10690   
     329;   304.0519;        53081   
     330;   304.9272;        77624   
     331;   305.8024;        28813   
     332;   306.6777;         4940   
     333;   307.5530;         2542   
     334;   308.4283;         2018   
     335;   309.3035;         1791   
     336;   310.1788;         1507   
     337;   311.0541;         1358   
     338;   311.9294;         1330   
     339;   312.8046;         1283   
     340;   313.6799;         1339   
     341;   314.5552;         1299   
     342;   315.4305;         1333   
     343;   316.3057;         1274   
     344;   317.1810;         1263   
     345;   318.0563;         1261   
     346;   318.9316;         1155   
     347;   319.8068;         1264   
     348;   320.6821;         1259   
     349;   321.5574;         1259   
     350;   322.4327;         1251   
     351;   323.3079;         1231   
     352;   324.1832;         1156   
     353;   325.0585;         1130   
     354;   325.9338;         1176   
     355;   326.8090;         1150   
     356;   327.6843;         1166   
     357;   328.5596;         1119   
     358;   329.4349;         1122   
     359;   330.3101;         1175   
     360;   331.1854;         1079   
     361;   332.0607;         1103   
     362;   332.9360;         1079   
     363;   333.8112;         1029   
     364;   334.6865;         1092   
     365;   335.5618;         1083   
     366;   336.4371;         1103   
     367;   337.3123;         1105   
     368;   338.1876;         1075   
     369;   339.0629;         1104   
     370;   339.9382;         1091   
     371;   340.8134;         1064   
     372;   341.6887;         1078   
     373;   342.5640;         1030   
     374;   343.4393;         1075   
     375;   344.3145;         1080   
     376;   345.1898;         1036   
     377;   346.0651;         1055   
     378;   346.9404;         1022   
     379;   347.8156;         1052   
     380;   348.6909;         1054   
     381;   349.5662;         1092   
     382;   350.4415;         1095   
     383;   351.3167;         1147   
     384;   352.1920;         1145   
     385;   353.0673;         1146   
     386;   353.9426;         1287   
     387;   354.8178;         1498   
     388;   355.6931;         5627   
     389;   356.5684;        53792   
     390;   357.4437;       193504   
     391;   358.3189;       187040   
     392;   359.1942;        49791   
     393;   360.0695;         7236   
     394;   360.9448;         3939   
     395;   361.8200;         2943   
     396;   362.6953;         2247   
     397;   363.5706;         1641   
     398;   364.4459;         1217   
     399;   365.3211;         1095   
     400;   366.1964;         1051   
     401;   367.0717;         1030   
     402;   367.9470;         1027   
     403;   368.8222;         1002   
     404;   369.6975;          969   
     405;   370.5728;          937   
     406;   371.4481;          969   
     407;   372.3233;          861   
     408;   373.1986;          887   
     409;   374.0739;          897   
     410;   374.9492;          850   
     411;   375.8244;          858   
     412;   376.6997;          864   
     413;   377.5750;          837   
     414;   378.4503;          770   
     415;   379.3255;          799   
     416;   380.2008;          829   
     417;   381.0761;          796   
     418;   381.9514;          874   
     419;   382.8266;          913   
     420;   383.7019;         2072   
     421;   384.5772;        11710   
     422;   385.4525;        30248   
     423;   386.3277;        21756   
     424;   387.2030;         5205   
     425;   388.0783;         1376   
     426;   388.9536;         1063   
     427;   389.8288;          887   
     428;   390.7041;          838   
     429;   391.5794;          738   
     430;   392.4547;          703   
     431;   393.3299;          640   
     432;   394.2052;          677   
     433;   395.0805;          650   
     434;   395.9558;          677   
     435;   396.8310;          616   
     436;   397.7063;          672   
     437;   398.5816;          627   
     438;   399.4569;          605   
     439;   400.3321;          622   
     440;   401.2074;          645   
     441;   402.0827;          598   
     442;   402.9580;          585   
     443;   403.8332;          585   
     444;   404.7085;          644   
     445;   405.5838;          589   
     446;   406.4591;          578   
     447;   407.3343;          579   
     448;   408.2096;          572   
     449;   409.0849;          572   
     450;   409.9602;          553   
     451;   410.8354;          592   
     452;   411.7107;          592   
     453;   412.5860;          545   
     454;   413.4613;          567   
     455;   414.3365;          571   
     456;   415.2118;          593   
     457;   416.0871;          542   
     458;   416.9624;          570   
     459;   417.8376;          571   
     460;   418.7129;          591   
     461;   419.5882;          561   
     462;   420.4635;          581   
     463;   421.3387;          574   
     464;   422.2140;          583   
     465;   423.0893;          597   
     466;   423.9646;          530   
     467;   424.8398;          579   
     468;   425.7151;          561   
     469;   426.5904;          585   
     470;   427.4657;          571   
     471;   428.3409;          584   
     472;   429.2162;          590   
     473;   430.0915;          585   
     474;   430.9668;          614   
     475;   431.8420;          627   
     476;   432.7173;          601   
     477;   433.5926;          606   
     478;   434.4679;          698   
     479;   435.3431;          635   
     480;   436.2184;          664   
     481;   437.0937;          869   
     482;   437.9690;         1489   
     483;   438.8442;         1986   
     484;   439.7195;         1116   
     485;   440.5948;          523   
     486;   441.4701;          442   
     487;   442.3453;          431   
     488;   443.2206;          392   
     489;   444.0959;          412   
     490;   444.9712;          405   
     491;   445.8464;          376   
     492;   446.7217;          391   
     493;   447.5970;          367   
     494;   448.4723;          377   
     495;   449.3475;          377   
     496;   450.2228;          360   
     497;   451.0981;          351   
     498;   451.9734;          350   
     499;   452.8486;          372   
     500;   453.7239;          395   
     501;   454.5992;          342   
     502;   455.4745;          381   
     503;   456.3497;          364   
     504;   457.2250;          377   
     505;   458.1003;          362   
     506;   458.9756;          376   
     507;   459.8508;          371   
     508;   460.7261;          365   
     509;   461.6014;          345   
     510;   462.4767;          355   
     511;   463.3519;          373   
     512;   464.2272;          373   
