Kanal;   Energie(keV); Impulse
       1;    16.9617;         5521   
       2;    17.8370;         5517   
       3;    18.7122;         5246   
       4;    19.5875;         5197   
       5;    20.4628;         5134   
       6;    21.3381;         5068   
       7;    22.2133;         4855   
       8;    23.0886;         4732   
       9;    23.9639;         4720   
      10;    24.8392;         4709   
      11;    25.7144;         4595   
      12;    26.5897;         4542   
      13;    27.4650;         4489   
      14;    28.3403;         4467   
      15;    29.2155;         4400   
      16;    30.0908;         4396   
      17;    30.9661;         4312   
      18;    31.8414;         4436   
      19;    32.7166;         4196   
      20;    33.5919;         4222   
      21;    34.4672;         4091   
      22;    35.3425;         4188   
      23;    36.2177;         4130   
      24;    37.0930;         4068   
      25;    37.9683;         3941   
      26;    38.8436;         4043   
      27;    39.7188;         3922   
      28;    40.5941;         4009   
      29;    41.4694;         4147   
      30;    42.3447;         4030   
      31;    43.2199;         4065   
      32;    44.0952;         3950   
      33;    44.9705;         3929   
      34;    45.8458;         4012   
      35;    46.7210;         3953   
      36;    47.5963;         4074   
      37;    48.4716;         3874   
      38;    49.3469;         4002   
      39;    50.2221;         3896   
      40;    51.0974;         3917   
      41;    51.9727;         3931   
      42;    52.8480;         3886   
      43;    53.7232;         3866   
      44;    54.5985;         3906   
      45;    55.4738;         3843   
      46;    56.3491;         3892   
      47;    57.2243;         3895   
      48;    58.0996;         3880   
      49;    58.9749;         3869   
      50;    59.8502;         3988   
      51;    60.7254;         3816   
      52;    61.6007;         4047   
      53;    62.4760;         3779   
      54;    63.3513;         3937   
      55;    64.2265;         3926   
      56;    65.1018;         3899   
      57;    65.9771;         4009   
      58;    66.8524;         3978   
      59;    67.7276;         3873   
      60;    68.6029;         4013   
      61;    69.4782;         3824   
      62;    70.3535;         3899   
      63;    71.2287;         3940   
      64;    72.1040;         3886   
      65;    72.9793;         3945   
      66;    73.8546;         4104   
      67;    74.7298;         4260   
      68;    75.6051;         4259   
      69;    76.4804;         4422   
      70;    77.3557;         4363   
      71;    78.2309;         4090   
      72;    79.1062;         3904   
      73;    79.9815;         3871   
      74;    80.8568;         4093   
      75;    81.7320;         3994   
      76;    82.6073;         4061   
      77;    83.4826;         4058   
      78;    84.3579;         4138   
      79;    85.2331;         4145   
      80;    86.1084;         4226   
      81;    86.9837;         4252   
      82;    87.8590;         4140   
      83;    88.7342;         4062   
      84;    89.6095;         4079   
      85;    90.4848;         4027   
      86;    91.3601;         4055   
      87;    92.2353;         3969   
      88;    93.1106;         3924   
      89;    93.9859;         3967   
      90;    94.8612;         4053   
      91;    95.7364;         3994   
      92;    96.6117;         4046   
      93;    97.4870;         3920   
      94;    98.3623;         3960   
      95;    99.2375;         4059   
      96;   100.1128;         4096   
      97;   100.9881;         4020   
      98;   101.8634;         4016   
      99;   102.7386;         4102   
     100;   103.6139;         3974   
     101;   104.4892;         4157   
     102;   105.3645;         4010   
     103;   106.2397;         4088   
     104;   107.1150;         4001   
     105;   107.9903;         4047   
     106;   108.8656;         4169   
     107;   109.7408;         4040   
     108;   110.6161;         4169   
     109;   111.4914;         4142   
     110;   112.3667;         4066   
     111;   113.2419;         4099   
     112;   114.1172;         4161   
     113;   114.9925;         4196   
     114;   115.8678;         4085   
     115;   116.7430;         4111   
     116;   117.6183;         4156   
     117;   118.4936;         4122   
     118;   119.3689;         4201   
     119;   120.2441;         4370   
     120;   121.1194;         4380   
     121;   121.9947;         5106   
     122;   122.8700;         6663   
     123;   123.7452;         6592   
     124;   124.6205;         4824   
     125;   125.4958;         4271   
     126;   126.3711;         4248   
     127;   127.2463;         4266   
     128;   128.1216;         4223   
     129;   128.9969;         4238   
     130;   129.8722;         4183   
     131;   130.7474;         4194   
     132;   131.6227;         4153   
     133;   132.4980;         4202   
     134;   133.3733;         4200   
     135;   134.2485;         4185   
     136;   135.1238;         4150   
     137;   135.9991;         4251   
     138;   136.8744;         4221   
     139;   137.7496;         4260   
     140;   138.6249;         4239   
     141;   139.5002;         4197   
     142;   140.3755;         4287   
     143;   141.2507;         4330   
     144;   142.1260;         4181   
     145;   143.0013;         4114   
     146;   143.8766;         4292   
     147;   144.7518;         4269   
     148;   145.6271;         4199   
     149;   146.5024;         4342   
     150;   147.3777;         4287   
     151;   148.2529;         4279   
     152;   149.1282;         4342   
     153;   150.0035;         4166   
     154;   150.8788;         4232   
     155;   151.7540;         4174   
     156;   152.6293;         4182   
     157;   153.5046;         4284   
     158;   154.3799;         4156   
     159;   155.2551;         4339   
     160;   156.1304;         4123   
     161;   157.0057;         4406   
     162;   157.8810;         4310   
     163;   158.7562;         4241   
     164;   159.6315;         4154   
     165;   160.5068;         4228   
     166;   161.3821;         4224   
     167;   162.2573;         4284   
     168;   163.1326;         4314   
     169;   164.0079;         4321   
     170;   164.8832;         4283   
     171;   165.7584;         4215   
     172;   166.6337;         4249   
     173;   167.5090;         4282   
     174;   168.3843;         4281   
     175;   169.2595;         4298   
     176;   170.1348;         4384   
     177;   171.0101;         4338   
     178;   171.8854;         4275   
     179;   172.7606;         4441   
     180;   173.6359;         4265   
     181;   174.5112;         4230   
     182;   175.3865;         4298   
     183;   176.2617;         4384   
     184;   177.1370;         4460   
     185;   178.0123;         4380   
     186;   178.8876;         4359   
     187;   179.7628;         4289   
     188;   180.6381;         4397   
     189;   181.5134;         4540   
     190;   182.3887;         4681   
     191;   183.2639;         4716   
     192;   184.1392;         4683   
     193;   185.0145;         4829   
     194;   185.8898;         4915   
     195;   186.7650;         4955   
     196;   187.6403;         5009   
     197;   188.5156;         5153   
     198;   189.3909;         5101   
     199;   190.2661;         5130   
     200;   191.1414;         5025   
     201;   192.0167;         4975   
     202;   192.8920;         5075   
     203;   193.7672;         5185   
     204;   194.6425;         5062   
     205;   195.5178;         4945   
     206;   196.3931;         4980   
     207;   197.2683;         5095   
     208;   198.1436;         5116   
     209;   199.0189;         4937   
     210;   199.8942;         5031   
     211;   200.7694;         5006   
     212;   201.6447;         4981   
     213;   202.5200;         5028   
     214;   203.3953;         5008   
     215;   204.2705;         5093   
     216;   205.1458;         5056   
     217;   206.0211;         4974   
     218;   206.8964;         4907   
     219;   207.7716;         4977   
     220;   208.6469;         4950   
     221;   209.5222;         4935   
     222;   210.3975;         5043   
     223;   211.2727;         5012   
     224;   212.1480;         4923   
     225;   213.0233;         5029   
     226;   213.8986;         4863   
     227;   214.7738;         4924   
     228;   215.6491;         4895   
     229;   216.5244;         4940   
     230;   217.3997;         4958   
     231;   218.2749;         5019   
     232;   219.1502;         4974   
     233;   220.0255;         4988   
     234;   220.9008;         5021   
     235;   221.7760;         5041   
     236;   222.6513;         4895   
     237;   223.5266;         5014   
     238;   224.4019;         5051   
     239;   225.2771;         4776   
     240;   226.1524;         4970   
     241;   227.0277;         5038   
     242;   227.9030;         4890   
     243;   228.7782;         4985   
     244;   229.6535;         4901   
     245;   230.5288;         4878   
     246;   231.4041;         4904   
     247;   232.2793;         4958   
     248;   233.1546;         4936   
     249;   234.0299;         4902   
     250;   234.9052;         4958   
     251;   235.7804;         4917   
     252;   236.6557;         4776   
     253;   237.5310;         4941   
     254;   238.4063;         4983   
     255;   239.2815;         4931   
     256;   240.1568;         5007   
     257;   241.0321;         4881   
     258;   241.9074;         4895   
     259;   242.7826;         5012   
     260;   243.6579;         4880   
     261;   244.5332;         5379   
     262;   245.4085;         5505   
     263;   246.2837;         5306   
     264;   247.1590;         4988   
     265;   248.0343;         4848   
     266;   248.9096;         4838   
     267;   249.7848;         4743   
     268;   250.6601;         4895   
     269;   251.5354;         4843   
     270;   252.4107;         4936   
     271;   253.2859;         4948   
     272;   254.1612;         4807   
     273;   255.0365;         4789   
     274;   255.9118;         4929   
     275;   256.7870;         4900   
     276;   257.6623;         4735   
     277;   258.5376;         4825   
     278;   259.4129;         4737   
     279;   260.2881;         4859   
     280;   261.1634;         4846   
     281;   262.0387;         4921   
     282;   262.9140;         4766   
     283;   263.7892;         4743   
     284;   264.6645;         4857   
     285;   265.5398;         4761   
     286;   266.4151;         4882   
     287;   267.2903;         4813   
     288;   268.1656;         4789   
     289;   269.0409;         4830   
     290;   269.9162;         4656   
     291;   270.7914;         4801   
     292;   271.6667;         4770   
     293;   272.5420;         4710   
     294;   273.4173;         4879   
     295;   274.2925;         4698   
     296;   275.1678;         4913   
     297;   276.0431;         4821   
     298;   276.9184;         4791   
     299;   277.7936;         4848   
     300;   278.6689;         4748   
     301;   279.5442;         4850   
     302;   280.4195;         4653   
     303;   281.2947;         4767   
     304;   282.1700;         4913   
     305;   283.0453;         4758   
     306;   283.9206;         4803   
     307;   284.7958;         4793   
     308;   285.6711;         4703   
     309;   286.5464;         4768   
     310;   287.4217;         4869   
     311;   288.2969;         4946   
     312;   289.1722;         4865   
     313;   290.0475;         4782   
     314;   290.9228;         4740   
     315;   291.7980;         4940   
     316;   292.6733;         4875   
     317;   293.5486;         4693   
     318;   294.4239;         4680   
     319;   295.2991;         4766   
     320;   296.1744;         4916   
     321;   297.0497;         4804   
     322;   297.9250;         4805   
     323;   298.8002;         4774   
     324;   299.6755;         4814   
     325;   300.5508;         4802   
     326;   301.4261;         4823   
     327;   302.3013;         4827   
     328;   303.1766;         4852   
     329;   304.0519;         4792   
     330;   304.9272;         4879   
     331;   305.8024;         4808   
     332;   306.6777;         4821   
     333;   307.5530;         4817   
     334;   308.4283;         4902   
     335;   309.3035;         4687   
     336;   310.1788;         4798   
     337;   311.0541;         4853   
     338;   311.9294;         4843   
     339;   312.8046;         4806   
     340;   313.6799;         4868   
     341;   314.5552;         4837   
     342;   315.4305;         4805   
     343;   316.3057;         4709   
     344;   317.1810;         4846   
     345;   318.0563;         4837   
     346;   318.9316;         4829   
     347;   319.8068;         4850   
     348;   320.6821;         4699   
     349;   321.5574;         4773   
     350;   322.4327;         4829   
     351;   323.3079;         4900   
     352;   324.1832;         4838   
     353;   325.0585;         4832   
     354;   325.9338;         4788   
     355;   326.8090;         4605   
     356;   327.6843;         4951   
     357;   328.5596;         4845   
     358;   329.4349;         4830   
     359;   330.3101;         4808   
     360;   331.1854;         4852   
     361;   332.0607;         4920   
     362;   332.9360;         4931   
     363;   333.8112;         4915   
     364;   334.6865;         4836   
     365;   335.5618;         4982   
     366;   336.4371;         4962   
     367;   337.3123;         5031   
     368;   338.1876;         4859   
     369;   339.0629;         4948   
     370;   339.9382;         4989   
     371;   340.8134;         4970   
     372;   341.6887;         4978   
     373;   342.5640;         5136   
     374;   343.4393;         5636   
     375;   344.3145;         6585   
     376;   345.1898;         5816   
     377;   346.0651;         5180   
     378;   346.9404;         5039   
     379;   347.8156;         5150   
     380;   348.6909;         5032   
     381;   349.5662;         5070   
     382;   350.4415;         5038   
     383;   351.3167;         5103   
     384;   352.1920;         5047   
     385;   353.0673;         5098   
     386;   353.9426;         5049   
     387;   354.8178;         5092   
     388;   355.6931;         5007   
     389;   356.5684;         5052   
     390;   357.4437;         5095   
     391;   358.3189;         5104   
     392;   359.1942;         5032   
     393;   360.0695;         5125   
     394;   360.9448;         5199   
     395;   361.8200;         5078   
     396;   362.6953;         5040   
     397;   363.5706;         5154   
     398;   364.4459;         5114   
     399;   365.3211;         5212   
     400;   366.1964;         5090   
     401;   367.0717;         5225   
     402;   367.9470;         5255   
     403;   368.8222;         5124   
     404;   369.6975;         5175   
     405;   370.5728;         5069   
     406;   371.4481;         5168   
     407;   372.3233;         5320   
     408;   373.1986;         5254   
     409;   374.0739;         5381   
     410;   374.9492;         5183   
     411;   375.8244;         5297   
     412;   376.6997;         5392   
     413;   377.5750;         5223   
     414;   378.4503;         5336   
     415;   379.3255;         5305   
     416;   380.2008;         5152   
     417;   381.0761;         5338   
     418;   381.9514;         5253   
     419;   382.8266;         5357   
     420;   383.7019;         5279   
     421;   384.5772;         5378   
     422;   385.4525;         5490   
     423;   386.3277;         5396   
     424;   387.2030;         5451   
     425;   388.0783;         5439   
     426;   388.9536;         5496   
     427;   389.8288;         5467   
     428;   390.7041;         5512   
     429;   391.5794;         5502   
     430;   392.4547;         5549   
     431;   393.3299;         5569   
     432;   394.2052;         5688   
     433;   395.0805;         5630   
     434;   395.9558;         5557   
     435;   396.8310;         5625   
     436;   397.7063;         5607   
     437;   398.5816;         5574   
     438;   399.4569;         5513   
     439;   400.3321;         5573   
     440;   401.2074;         5719   
     441;   402.0827;         5661   
     442;   402.9580;         5642   
     443;   403.8332;         5813   
     444;   404.7085;         5897   
     445;   405.5838;         5679   
     446;   406.4591;         5818   
     447;   407.3343;         5830   
     448;   408.2096;         5715   
     449;   409.0849;         5869   
     450;   409.9602;         5919   
     451;   410.8354;         5989   
     452;   411.7107;         5899   
     453;   412.5860;         5959   
     454;   413.4613;         5904   
     455;   414.3365;         5877   
     456;   415.2118;         5906   
     457;   416.0871;         5991   
     458;   416.9624;         6046   
     459;   417.8376;         6041   
     460;   418.7129;         6013   
     461;   419.5882;         5914   
     462;   420.4635;         6022   
     463;   421.3387;         6143   
     464;   422.2140;         6046   
     465;   423.0893;         6094   
     466;   423.9646;         6132   
     467;   424.8398;         6164   
     468;   425.7151;         6269   
     469;   426.5904;         6177   
     470;   427.4657;         6360   
     471;   428.3409;         6249   
     472;   429.2162;         6333   
     473;   430.0915;         6360   
     474;   430.9668;         6338   
     475;   431.8420;         6481   
     476;   432.7173;         6465   
     477;   433.5926;         6458   
     478;   434.4679;         6446   
     479;   435.3431;         6673   
     480;   436.2184;         6431   
     481;   437.0937;         6617   
     482;   437.9690;         6509   
     483;   438.8442;         6694   
     484;   439.7195;         6678   
     485;   440.5948;         6762   
     486;   441.4701;         6624   
     487;   442.3453;         6728   
     488;   443.2206;         6929   
     489;   444.0959;         7048   
     490;   444.9712;         6839   
     491;   445.8464;         6933   
     492;   446.7217;         6885   
     493;   447.5970;         7027   
     494;   448.4723;         6921   
     495;   449.3475;         7009   
     496;   450.2228;         6884   
     497;   451.0981;         6968   
     498;   451.9734;         6996   
     499;   452.8486;         7135   
     500;   453.7239;         7173   
     501;   454.5992;         7261   
     502;   455.4745;         7194   
     503;   456.3497;         7159   
     504;   457.2250;         7324   
     505;   458.1003;         7260   
     506;   458.9756;         7209   
     507;   459.8508;         7268   
     508;   460.7261;         7242   
     509;   461.6014;         7315   
     510;   462.4767;         7482   
     511;   463.3519;         7345   
     512;   464.2272;         7453   
