Kanal;   Energie(keV); Impulse
       1;    16.9617;         2895   
       2;    17.8370;         2836   
       3;    18.7122;         2798   
       4;    19.5875;         2698   
       5;    20.4628;         2574   
       6;    21.3381;         2646   
       7;    22.2133;         2563   
       8;    23.0886;         2475   
       9;    23.9639;         2453   
      10;    24.8392;         2454   
      11;    25.7144;         2366   
      12;    26.5897;         2346   
      13;    27.4650;         2211   
      14;    28.3403;         2180   
      15;    29.2155;         2203   
      16;    30.0908;         2167   
      17;    30.9661;         2041   
      18;    31.8414;         2114   
      19;    32.7166;         2131   
      20;    33.5919;         2138   
      21;    34.4672;         2226   
      22;    35.3425;         2172   
      23;    36.2177;         2200   
      24;    37.0930;         2082   
      25;    37.9683;         2189   
      26;    38.8436;         2149   
      27;    39.7188;         1972   
      28;    40.5941;         2058   
      29;    41.4694;         2093   
      30;    42.3447;         2078   
      31;    43.2199;         2041   
      32;    44.0952;         2044   
      33;    44.9705;         1990   
      34;    45.8458;         2095   
      35;    46.7210;         2132   
      36;    47.5963;         1990   
      37;    48.4716;         2062   
      38;    49.3469;         1860   
      39;    50.2221;         1924   
      40;    51.0974;         2006   
      41;    51.9727;         1945   
      42;    52.8480;         1863   
      43;    53.7232;         1921   
      44;    54.5985;         1870   
      45;    55.4738;         1881   
      46;    56.3491;         1911   
      47;    57.2243;         1902   
      48;    58.0996;         1919   
      49;    58.9749;         1921   
      50;    59.8502;         1926   
      51;    60.7254;         1971   
      52;    61.6007;         1934   
      53;    62.4760;         1927   
      54;    63.3513;         1921   
      55;    64.2265;         1854   
      56;    65.1018;         1950   
      57;    65.9771;         1979   
      58;    66.8524;         2023   
      59;    67.7276;         1990   
      60;    68.6029;         2007   
      61;    69.4782;         2067   
      62;    70.3535;         2074   
      63;    71.2287;         2031   
      64;    72.1040;         2147   
      65;    72.9793;         2249   
      66;    73.8546;         2734   
      67;    74.7298;         3243   
      68;    75.6051;         3062   
      69;    76.4804;         3915   
      70;    77.3557;         3460   
      71;    78.2309;         2337   
      72;    79.1062;         2154   
      73;    79.9815;         2030   
      74;    80.8568;         2182   
      75;    81.7320;         2175   
      76;    82.6073;         2191   
      77;    83.4826;         2296   
      78;    84.3579;         2311   
      79;    85.2331;         2629   
      80;    86.1084;         3378   
      81;    86.9837;         3252   
      82;    87.8590;         2556   
      83;    88.7342;         2680   
      84;    89.6095;         2515   
      85;    90.4848;         2350   
      86;    91.3601;         2281   
      87;    92.2353;         2268   
      88;    93.1106;         2277   
      89;    93.9859;         2164   
      90;    94.8612;         2236   
      91;    95.7364;         2249   
      92;    96.6117;         2127   
      93;    97.4870;         2283   
      94;    98.3623;         2263   
      95;    99.2375;         2269   
      96;   100.1128;         2290   
      97;   100.9881;         2139   
      98;   101.8634;         2254   
      99;   102.7386;         2244   
     100;   103.6139;         2276   
     101;   104.4892;         2381   
     102;   105.3645;         2247   
     103;   106.2397;         2228   
     104;   107.1150;         2275   
     105;   107.9903;         2267   
     106;   108.8656;         2275   
     107;   109.7408;         2268   
     108;   110.6161;         2355   
     109;   111.4914;         2396   
     110;   112.3667;         2348   
     111;   113.2419;         2400   
     112;   114.1172;         2412   
     113;   114.9925;         2359   
     114;   115.8678;         2316   
     115;   116.7430;         2428   
     116;   117.6183;         2375   
     117;   118.4936;         2438   
     118;   119.3689;         2352   
     119;   120.2441;         2423   
     120;   121.1194;         2496   
     121;   121.9947;         4660   
     122;   122.8700;        10919   
     123;   123.7452;         9653   
     124;   124.6205;         3624   
     125;   125.4958;         2352   
     126;   126.3711;         2363   
     127;   127.2463;         2315   
     128;   128.1216;         2264   
     129;   128.9969;         2287   
     130;   129.8722;         2313   
     131;   130.7474;         2301   
     132;   131.6227;         2274   
     133;   132.4980;         2305   
     134;   133.3733;         2266   
     135;   134.2485;         2201   
     136;   135.1238;         2359   
     137;   135.9991;         2320   
     138;   136.8744;         2239   
     139;   137.7496;         2210   
     140;   138.6249;         2321   
     141;   139.5002;         2288   
     142;   140.3755;         2204   
     143;   141.2507;         2412   
     144;   142.1260;         2275   
     145;   143.0013;         2294   
     146;   143.8766;         2328   
     147;   144.7518;         2265   
     148;   145.6271;         2258   
     149;   146.5024;         2300   
     150;   147.3777;         2283   
     151;   148.2529;         2304   
     152;   149.1282;         2259   
     153;   150.0035;         2362   
     154;   150.8788;         2376   
     155;   151.7540;         2333   
     156;   152.6293;         2269   
     157;   153.5046;         2349   
     158;   154.3799;         2415   
     159;   155.2551;         2340   
     160;   156.1304;         2290   
     161;   157.0057;         2295   
     162;   157.8810;         2347   
     163;   158.7562;         2408   
     164;   159.6315;         2227   
     165;   160.5068;         2303   
     166;   161.3821;         2340   
     167;   162.2573;         2399   
     168;   163.1326;         2356   
     169;   164.0079;         2286   
     170;   164.8832;         2398   
     171;   165.7584;         2319   
     172;   166.6337;         2322   
     173;   167.5090;         2288   
     174;   168.3843;         2386   
     175;   169.2595;         2363   
     176;   170.1348;         2311   
     177;   171.0101;         2280   
     178;   171.8854;         2309   
     179;   172.7606;         2303   
     180;   173.6359;         2397   
     181;   174.5112;         2360   
     182;   175.3865;         2377   
     183;   176.2617;         2342   
     184;   177.1370;         2308   
     185;   178.0123;         2375   
     186;   178.8876;         2379   
     187;   179.7628;         2477   
     188;   180.6381;         2485   
     189;   181.5134;         2478   
     190;   182.3887;         2559   
     191;   183.2639;         2667   
     192;   184.1392;         2819   
     193;   185.0145;         3071   
     194;   185.8898;         3219   
     195;   186.7650;         3222   
     196;   187.6403;         3376   
     197;   188.5156;         3425   
     198;   189.3909;         3363   
     199;   190.2661;         3368   
     200;   191.1414;         3388   
     201;   192.0167;         3285   
     202;   192.8920;         3317   
     203;   193.7672;         3293   
     204;   194.6425;         3212   
     205;   195.5178;         3325   
     206;   196.3931;         3227   
     207;   197.2683;         3320   
     208;   198.1436;         3297   
     209;   199.0189;         3183   
     210;   199.8942;         3243   
     211;   200.7694;         3188   
     212;   201.6447;         3149   
     213;   202.5200;         3003   
     214;   203.3953;         3028   
     215;   204.2705;         3064   
     216;   205.1458;         2953   
     217;   206.0211;         2964   
     218;   206.8964;         2933   
     219;   207.7716;         2898   
     220;   208.6469;         2808   
     221;   209.5222;         2761   
     222;   210.3975;         2822   
     223;   211.2727;         2719   
     224;   212.1480;         2645   
     225;   213.0233;         2689   
     226;   213.8986;         2613   
     227;   214.7738;         2539   
     228;   215.6491;         2538   
     229;   216.5244;         2540   
     230;   217.3997;         2521   
     231;   218.2749;         2480   
     232;   219.1502;         2339   
     233;   220.0255;         2428   
     234;   220.9008;         2311   
     235;   221.7760;         2232   
     236;   222.6513;         2336   
     237;   223.5266;         2354   
     238;   224.4019;         2321   
     239;   225.2771;         2220   
     240;   226.1524;         2258   
     241;   227.0277;         2252   
     242;   227.9030;         2230   
     243;   228.7782;         2182   
     244;   229.6535;         2104   
     245;   230.5288;         2063   
     246;   231.4041;         2057   
     247;   232.2793;         2042   
     248;   233.1546;         2073   
     249;   234.0299;         2110   
     250;   234.9052;         2074   
     251;   235.7804;         2009   
     252;   236.6557;         2000   
     253;   237.5310;         2048   
     254;   238.4063;         2090   
     255;   239.2815;         2075   
     256;   240.1568;         2070   
     257;   241.0321;         1884   
     258;   241.9074;         1957   
     259;   242.7826;         2007   
     260;   243.6579;         2068   
     261;   244.5332;         2949   
     262;   245.4085;         3857   
     263;   246.2837;         2862   
     264;   247.1590;         1999   
     265;   248.0343;         1853   
     266;   248.9096;         1882   
     267;   249.7848;         1857   
     268;   250.6601;         1893   
     269;   251.5354;         1838   
     270;   252.4107;         1810   
     271;   253.2859;         1871   
     272;   254.1612;         1788   
     273;   255.0365;         1793   
     274;   255.9118;         1765   
     275;   256.7870;         1751   
     276;   257.6623;         1706   
     277;   258.5376;         1771   
     278;   259.4129;         1753   
     279;   260.2881;         1776   
     280;   261.1634;         1828   
     281;   262.0387;         1708   
     282;   262.9140;         1811   
     283;   263.7892;         1804   
     284;   264.6645;         1661   
     285;   265.5398;         1698   
     286;   266.4151;         1702   
     287;   267.2903;         1602   
     288;   268.1656;         1748   
     289;   269.0409;         1748   
     290;   269.9162;         1659   
     291;   270.7914;         1668   
     292;   271.6667;         1753   
     293;   272.5420;         1696   
     294;   273.4173;         1779   
     295;   274.2925;         1752   
     296;   275.1678;         1685   
     297;   276.0431;         1627   
     298;   276.9184;         1666   
     299;   277.7936;         1671   
     300;   278.6689;         1714   
     301;   279.5442;         1664   
     302;   280.4195;         1626   
     303;   281.2947;         1589   
     304;   282.1700;         1609   
     305;   283.0453;         1579   
     306;   283.9206;         1662   
     307;   284.7958;         1636   
     308;   285.6711;         1627   
     309;   286.5464;         1614   
     310;   287.4217;         1604   
     311;   288.2969;         1631   
     312;   289.1722;         1574   
     313;   290.0475;         1562   
     314;   290.9228;         1612   
     315;   291.7980;         1631   
     316;   292.6733;         1567   
     317;   293.5486;         1575   
     318;   294.4239;         1596   
     319;   295.2991;         1673   
     320;   296.1744;         1719   
     321;   297.0497;         1651   
     322;   297.9250;         1611   
     323;   298.8002;         1602   
     324;   299.6755;         1599   
     325;   300.5508;         1572   
     326;   301.4261;         1610   
     327;   302.3013;         1556   
     328;   303.1766;         1627   
     329;   304.0519;         1573   
     330;   304.9272;         1527   
     331;   305.8024;         1556   
     332;   306.6777;         1616   
     333;   307.5530;         1525   
     334;   308.4283;         1542   
     335;   309.3035;         1499   
     336;   310.1788;         1539   
     337;   311.0541;         1554   
     338;   311.9294;         1497   
     339;   312.8046;         1508   
     340;   313.6799;         1561   
     341;   314.5552;         1429   
     342;   315.4305;         1496   
     343;   316.3057;         1539   
     344;   317.1810;         1541   
     345;   318.0563;         1555   
     346;   318.9316;         1459   
     347;   319.8068;         1550   
     348;   320.6821;         1531   
     349;   321.5574;         1419   
     350;   322.4327;         1549   
     351;   323.3079;         1511   
     352;   324.1832;         1477   
     353;   325.0585;         1568   
     354;   325.9338;         1604   
     355;   326.8090;         1481   
     356;   327.6843;         1548   
     357;   328.5596;         1510   
     358;   329.4349;         1555   
     359;   330.3101;         1481   
     360;   331.1854;         1556   
     361;   332.0607;         1517   
     362;   332.9360;         1533   
     363;   333.8112;         1503   
     364;   334.6865;         1497   
     365;   335.5618;         1512   
     366;   336.4371;         1504   
     367;   337.3123;         1579   
     368;   338.1876;         1578   
     369;   339.0629;         1678   
     370;   339.9382;         1506   
     371;   340.8134;         1511   
     372;   341.6887;         1474   
     373;   342.5640;         1909   
     374;   343.4393;         3975   
     375;   344.3145;         6593   
     376;   345.1898;         4447   
     377;   346.0651;         1971   
     378;   346.9404;         1616   
     379;   347.8156;         1576   
     380;   348.6909;         1549   
     381;   349.5662;         1460   
     382;   350.4415;         1552   
     383;   351.3167;         1507   
     384;   352.1920;         1566   
     385;   353.0673;         1476   
     386;   353.9426;         1498   
     387;   354.8178;         1539   
     388;   355.6931;         1464   
     389;   356.5684;         1495   
     390;   357.4437;         1546   
     391;   358.3189;         1572   
     392;   359.1942;         1512   
     393;   360.0695;         1567   
     394;   360.9448;         1508   
     395;   361.8200;         1497   
     396;   362.6953;         1524   
     397;   363.5706;         1577   
     398;   364.4459;         1485   
     399;   365.3211;         1479   
     400;   366.1964;         1580   
     401;   367.0717;         1720   
     402;   367.9470;         1746   
     403;   368.8222;         1668   
     404;   369.6975;         1512   
     405;   370.5728;         1524   
     406;   371.4481;         1616   
     407;   372.3233;         1496   
     408;   373.1986;         1544   
     409;   374.0739;         1579   
     410;   374.9492;         1544   
     411;   375.8244;         1544   
     412;   376.6997;         1580   
     413;   377.5750;         1587   
     414;   378.4503;         1558   
     415;   379.3255;         1588   
     416;   380.2008;         1609   
     417;   381.0761;         1498   
     418;   381.9514;         1605   
     419;   382.8266;         1559   
     420;   383.7019;         1626   
     421;   384.5772;         1574   
     422;   385.4525;         1625   
     423;   386.3277;         1586   
     424;   387.2030;         1583   
     425;   388.0783;         1616   
     426;   388.9536;         1645   
     427;   389.8288;         1671   
     428;   390.7041;         1555   
     429;   391.5794;         1654   
     430;   392.4547;         1539   
     431;   393.3299;         1591   
     432;   394.2052;         1592   
     433;   395.0805;         1598   
     434;   395.9558;         1647   
     435;   396.8310;         1641   
     436;   397.7063;         1671   
     437;   398.5816;         1710   
     438;   399.4569;         1609   
     439;   400.3321;         1563   
     440;   401.2074;         1614   
     441;   402.0827;         1670   
     442;   402.9580;         1727   
     443;   403.8332;         1607   
     444;   404.7085;         1646   
     445;   405.5838;         1681   
     446;   406.4591;         1662   
     447;   407.3343;         1740   
     448;   408.2096;         1708   
     449;   409.0849;         1714   
     450;   409.9602;         1882   
     451;   410.8354;         2056   
     452;   411.7107;         2010   
     453;   412.5860;         1761   
     454;   413.4613;         1713   
     455;   414.3365;         1839   
     456;   415.2118;         1803   
     457;   416.0871;         1792   
     458;   416.9624;         1696   
     459;   417.8376;         1782   
     460;   418.7129;         1776   
     461;   419.5882;         1781   
     462;   420.4635;         1830   
     463;   421.3387;         1821   
     464;   422.2140;         1846   
     465;   423.0893;         1828   
     466;   423.9646;         1836   
     467;   424.8398;         1855   
     468;   425.7151;         1861   
     469;   426.5904;         1778   
     470;   427.4657;         1842   
     471;   428.3409;         1882   
     472;   429.2162;         1806   
     473;   430.0915;         1981   
     474;   430.9668;         1894   
     475;   431.8420;         1926   
     476;   432.7173;         1935   
     477;   433.5926;         1911   
     478;   434.4679;         1887   
     479;   435.3431;         1910   
     480;   436.2184;         1984   
     481;   437.0937;         1900   
     482;   437.9690;         1972   
     483;   438.8442;         1935   
     484;   439.7195;         2071   
     485;   440.5948;         1934   
     486;   441.4701;         2022   
     487;   442.3453;         2224   
     488;   443.2206;         2554   
     489;   444.0959;         2376   
     490;   444.9712;         2104   
     491;   445.8464;         2041   
     492;   446.7217;         2114   
     493;   447.5970;         2144   
     494;   448.4723;         2161   
     495;   449.3475;         2182   
     496;   450.2228;         2151   
     497;   451.0981;         2137   
     498;   451.9734;         2194   
     499;   452.8486;         2185   
     500;   453.7239;         2256   
     501;   454.5992;         2172   
     502;   455.4745;         2159   
     503;   456.3497;         2199   
     504;   457.2250;         2202   
     505;   458.1003;         2189   
     506;   458.9756;         2180   
     507;   459.8508;         2247   
     508;   460.7261;         2310   
     509;   461.6014;         2222   
     510;   462.4767;         2274   
     511;   463.3519;         2389   
     512;   464.2272;         2311   
