Kanal;   Energie(keV); Impulse
       1;    16.9617;         3544   
       2;    17.8370;         3396   
       3;    18.7122;         3274   
       4;    19.5875;         3295   
       5;    20.4628;         3179   
       6;    21.3381;         3124   
       7;    22.2133;         3046   
       8;    23.0886;         2927   
       9;    23.9639;         2977   
      10;    24.8392;         2883   
      11;    25.7144;         2812   
      12;    26.5897;         2743   
      13;    27.4650;         2734   
      14;    28.3403;         2698   
      15;    29.2155;         2663   
      16;    30.0908;         2598   
      17;    30.9661;         2612   
      18;    31.8414;         2513   
      19;    32.7166;         2552   
      20;    33.5919;         2485   
      21;    34.4672;         2588   
      22;    35.3425;         2550   
      23;    36.2177;         2542   
      24;    37.0930;         2509   
      25;    37.9683;         2556   
      26;    38.8436;         2471   
      27;    39.7188;         2436   
      28;    40.5941;         2569   
      29;    41.4694;         2463   
      30;    42.3447;         2519   
      31;    43.2199;         2448   
      32;    44.0952;         2460   
      33;    44.9705;         2479   
      34;    45.8458;         2440   
      35;    46.7210;         2440   
      36;    47.5963;         2502   
      37;    48.4716;         2390   
      38;    49.3469;         2432   
      39;    50.2221;         2324   
      40;    51.0974;         2363   
      41;    51.9727;         2400   
      42;    52.8480;         2384   
      43;    53.7232;         2313   
      44;    54.5985;         2326   
      45;    55.4738;         2399   
      46;    56.3491;         2325   
      47;    57.2243;         2355   
      48;    58.0996;         2343   
      49;    58.9749;         2377   
      50;    59.8502;         2361   
      51;    60.7254;         2390   
      52;    61.6007;         2386   
      53;    62.4760;         2353   
      54;    63.3513;         2382   
      55;    64.2265;         2320   
      56;    65.1018;         2360   
      57;    65.9771;         2385   
      58;    66.8524;         2389   
      59;    67.7276;         2380   
      60;    68.6029;         2361   
      61;    69.4782;         2434   
      62;    70.3535;         2418   
      63;    71.2287;         2560   
      64;    72.1040;         2436   
      65;    72.9793;         2541   
      66;    73.8546;         2952   
      67;    74.7298;         3190   
      68;    75.6051;         3133   
      69;    76.4804;         3841   
      70;    77.3557;         3441   
      71;    78.2309;         2615   
      72;    79.1062;         2479   
      73;    79.9815;         2547   
      74;    80.8568;         2475   
      75;    81.7320;         2491   
      76;    82.6073;         2519   
      77;    83.4826;         2462   
      78;    84.3579;         2654   
      79;    85.2331;         2853   
      80;    86.1084;         3299   
      81;    86.9837;         3188   
      82;    87.8590;         2755   
      83;    88.7342;         2831   
      84;    89.6095;         2762   
      85;    90.4848;         2590   
      86;    91.3601;         2589   
      87;    92.2353;         2544   
      88;    93.1106;         2461   
      89;    93.9859;         2365   
      90;    94.8612;         2556   
      91;    95.7364;         2427   
      92;    96.6117;         2425   
      93;    97.4870;         2446   
      94;    98.3623;         2486   
      95;    99.2375;         2529   
      96;   100.1128;         2542   
      97;   100.9881;         2618   
      98;   101.8634;         2501   
      99;   102.7386;         2482   
     100;   103.6139;         2430   
     101;   104.4892;         2525   
     102;   105.3645;         2435   
     103;   106.2397;         2637   
     104;   107.1150;         2585   
     105;   107.9903;         2502   
     106;   108.8656;         2614   
     107;   109.7408;         2532   
     108;   110.6161;         2623   
     109;   111.4914;         2673   
     110;   112.3667;         2629   
     111;   113.2419;         2597   
     112;   114.1172;         2672   
     113;   114.9925;         2671   
     114;   115.8678;         2645   
     115;   116.7430;         2631   
     116;   117.6183;         2718   
     117;   118.4936;         2730   
     118;   119.3689;         2786   
     119;   120.2441;         2630   
     120;   121.1194;         2773   
     121;   121.9947;         4139   
     122;   122.8700;         8173   
     123;   123.7452;         7325   
     124;   124.6205;         3477   
     125;   125.4958;         2709   
     126;   126.3711;         2600   
     127;   127.2463;         2683   
     128;   128.1216;         2639   
     129;   128.9969;         2532   
     130;   129.8722;         2579   
     131;   130.7474;         2550   
     132;   131.6227;         2621   
     133;   132.4980;         2514   
     134;   133.3733;         2621   
     135;   134.2485;         2632   
     136;   135.1238;         2632   
     137;   135.9991;         2579   
     138;   136.8744;         2526   
     139;   137.7496;         2616   
     140;   138.6249;         2674   
     141;   139.5002;         2627   
     142;   140.3755;         2561   
     143;   141.2507;         2610   
     144;   142.1260;         2618   
     145;   143.0013;         2574   
     146;   143.8766;         2524   
     147;   144.7518;         2642   
     148;   145.6271;         2559   
     149;   146.5024;         2546   
     150;   147.3777;         2585   
     151;   148.2529;         2536   
     152;   149.1282;         2712   
     153;   150.0035;         2716   
     154;   150.8788;         2593   
     155;   151.7540;         2708   
     156;   152.6293;         2659   
     157;   153.5046;         2655   
     158;   154.3799;         2690   
     159;   155.2551;         2666   
     160;   156.1304;         2712   
     161;   157.0057;         2569   
     162;   157.8810;         2657   
     163;   158.7562;         2650   
     164;   159.6315;         2614   
     165;   160.5068;         2688   
     166;   161.3821;         2684   
     167;   162.2573;         2739   
     168;   163.1326;         2634   
     169;   164.0079;         2662   
     170;   164.8832;         2701   
     171;   165.7584;         2722   
     172;   166.6337;         2696   
     173;   167.5090;         2663   
     174;   168.3843;         2757   
     175;   169.2595;         2627   
     176;   170.1348;         2826   
     177;   171.0101;         2782   
     178;   171.8854;         2742   
     179;   172.7606;         2723   
     180;   173.6359;         2805   
     181;   174.5112;         2812   
     182;   175.3865;         2809   
     183;   176.2617;         2793   
     184;   177.1370;         2763   
     185;   178.0123;         2861   
     186;   178.8876;         2911   
     187;   179.7628;         2812   
     188;   180.6381;         2947   
     189;   181.5134;         3010   
     190;   182.3887;         2935   
     191;   183.2639;         3103   
     192;   184.1392;         3326   
     193;   185.0145;         3526   
     194;   185.8898;         3653   
     195;   186.7650;         3878   
     196;   187.6403;         3929   
     197;   188.5156;         4046   
     198;   189.3909;         4073   
     199;   190.2661;         4152   
     200;   191.1414;         4149   
     201;   192.0167;         4178   
     202;   192.8920;         4205   
     203;   193.7672;         4174   
     204;   194.6425;         4160   
     205;   195.5178;         4119   
     206;   196.3931;         4059   
     207;   197.2683;         4044   
     208;   198.1436;         3842   
     209;   199.0189;         3964   
     210;   199.8942;         3782   
     211;   200.7694;         3846   
     212;   201.6447;         3643   
     213;   202.5200;         3704   
     214;   203.3953;         3525   
     215;   204.2705;         3501   
     216;   205.1458;         3488   
     217;   206.0211;         3404   
     218;   206.8964;         3336   
     219;   207.7716;         3412   
     220;   208.6469;         3189   
     221;   209.5222;         3209   
     222;   210.3975;         3154   
     223;   211.2727;         3199   
     224;   212.1480;         3002   
     225;   213.0233;         3076   
     226;   213.8986;         3003   
     227;   214.7738;         3043   
     228;   215.6491;         3004   
     229;   216.5244;         3064   
     230;   217.3997;         2992   
     231;   218.2749;         2953   
     232;   219.1502;         2843   
     233;   220.0255;         2889   
     234;   220.9008;         2764   
     235;   221.7760;         2792   
     236;   222.6513;         2886   
     237;   223.5266;         2699   
     238;   224.4019;         2828   
     239;   225.2771;         2799   
     240;   226.1524;         2681   
     241;   227.0277;         2742   
     242;   227.9030;         2693   
     243;   228.7782;         2573   
     244;   229.6535;         2673   
     245;   230.5288;         2615   
     246;   231.4041;         2570   
     247;   232.2793;         2615   
     248;   233.1546;         2613   
     249;   234.0299;         2546   
     250;   234.9052;         2609   
     251;   235.7804;         2567   
     252;   236.6557;         2579   
     253;   237.5310;         2572   
     254;   238.4063;         2558   
     255;   239.2815;         2566   
     256;   240.1568;         2583   
     257;   241.0321;         2420   
     258;   241.9074;         2517   
     259;   242.7826;         2491   
     260;   243.6579;         2510   
     261;   244.5332;         3056   
     262;   245.4085;         3777   
     263;   246.2837;         3025   
     264;   247.1590;         2455   
     265;   248.0343;         2388   
     266;   248.9096;         2357   
     267;   249.7848;         2318   
     268;   250.6601;         2344   
     269;   251.5354;         2297   
     270;   252.4107;         2355   
     271;   253.2859;         2327   
     272;   254.1612;         2315   
     273;   255.0365;         2216   
     274;   255.9118;         2199   
     275;   256.7870;         2235   
     276;   257.6623;         2268   
     277;   258.5376;         2367   
     278;   259.4129;         2365   
     279;   260.2881;         2268   
     280;   261.1634;         2271   
     281;   262.0387;         2215   
     282;   262.9140;         2229   
     283;   263.7892;         2263   
     284;   264.6645;         2240   
     285;   265.5398;         2164   
     286;   266.4151;         2185   
     287;   267.2903;         2311   
     288;   268.1656;         2248   
     289;   269.0409;         2232   
     290;   269.9162;         2172   
     291;   270.7914;         2196   
     292;   271.6667;         2209   
     293;   272.5420;         2216   
     294;   273.4173;         2215   
     295;   274.2925;         2206   
     296;   275.1678;         2276   
     297;   276.0431;         2175   
     298;   276.9184;         2189   
     299;   277.7936;         2167   
     300;   278.6689;         2191   
     301;   279.5442;         2140   
     302;   280.4195;         2211   
     303;   281.2947;         2077   
     304;   282.1700;         2184   
     305;   283.0453;         2140   
     306;   283.9206;         2152   
     307;   284.7958;         2171   
     308;   285.6711;         2200   
     309;   286.5464;         2180   
     310;   287.4217;         2055   
     311;   288.2969;         2097   
     312;   289.1722;         2196   
     313;   290.0475;         2182   
     314;   290.9228;         2163   
     315;   291.7980;         2113   
     316;   292.6733;         2146   
     317;   293.5486;         2092   
     318;   294.4239;         2175   
     319;   295.2991;         2135   
     320;   296.1744;         2215   
     321;   297.0497;         2215   
     322;   297.9250;         2108   
     323;   298.8002;         2068   
     324;   299.6755;         2119   
     325;   300.5508;         2199   
     326;   301.4261;         2116   
     327;   302.3013;         2067   
     328;   303.1766;         2096   
     329;   304.0519;         2160   
     330;   304.9272;         2145   
     331;   305.8024;         2071   
     332;   306.6777;         2100   
     333;   307.5530;         2079   
     334;   308.4283;         2106   
     335;   309.3035;         2047   
     336;   310.1788;         2080   
     337;   311.0541;         2030   
     338;   311.9294;         2137   
     339;   312.8046;         2093   
     340;   313.6799;         2081   
     341;   314.5552;         2068   
     342;   315.4305;         2121   
     343;   316.3057;         2117   
     344;   317.1810;         2081   
     345;   318.0563;         2144   
     346;   318.9316;         2155   
     347;   319.8068;         2015   
     348;   320.6821;         2079   
     349;   321.5574;         2108   
     350;   322.4327;         2158   
     351;   323.3079;         2072   
     352;   324.1832;         2073   
     353;   325.0585;         2103   
     354;   325.9338;         2113   
     355;   326.8090;         2044   
     356;   327.6843;         2143   
     357;   328.5596;         1998   
     358;   329.4349;         2114   
     359;   330.3101;         2104   
     360;   331.1854;         2102   
     361;   332.0607;         2017   
     362;   332.9360;         2189   
     363;   333.8112;         2098   
     364;   334.6865;         2123   
     365;   335.5618;         2042   
     366;   336.4371;         2131   
     367;   337.3123;         2124   
     368;   338.1876;         2156   
     369;   339.0629;         2170   
     370;   339.9382;         2123   
     371;   340.8134;         2127   
     372;   341.6887;         2119   
     373;   342.5640;         2303   
     374;   343.4393;         3820   
     375;   344.3145;         5670   
     376;   345.1898;         4101   
     377;   346.0651;         2446   
     378;   346.9404;         2178   
     379;   347.8156;         2186   
     380;   348.6909;         2043   
     381;   349.5662;         2093   
     382;   350.4415;         2100   
     383;   351.3167;         2180   
     384;   352.1920;         2182   
     385;   353.0673;         2112   
     386;   353.9426;         2195   
     387;   354.8178;         2095   
     388;   355.6931;         2204   
     389;   356.5684;         2207   
     390;   357.4437;         2176   
     391;   358.3189;         2025   
     392;   359.1942;         2118   
     393;   360.0695;         2206   
     394;   360.9448;         2116   
     395;   361.8200;         2190   
     396;   362.6953;         2185   
     397;   363.5706;         2183   
     398;   364.4459;         2150   
     399;   365.3211;         2147   
     400;   366.1964;         2179   
     401;   367.0717;         2278   
     402;   367.9470;         2245   
     403;   368.8222;         2244   
     404;   369.6975;         2238   
     405;   370.5728;         2142   
     406;   371.4481;         2177   
     407;   372.3233;         2176   
     408;   373.1986;         2206   
     409;   374.0739;         2261   
     410;   374.9492;         2234   
     411;   375.8244;         2194   
     412;   376.6997;         2203   
     413;   377.5750;         2238   
     414;   378.4503;         2187   
     415;   379.3255;         2210   
     416;   380.2008;         2266   
     417;   381.0761;         2167   
     418;   381.9514;         2238   
     419;   382.8266;         2254   
     420;   383.7019;         2288   
     421;   384.5772;         2214   
     422;   385.4525;         2334   
     423;   386.3277;         2347   
     424;   387.2030;         2272   
     425;   388.0783;         2299   
     426;   388.9536;         2238   
     427;   389.8288;         2336   
     428;   390.7041;         2307   
     429;   391.5794;         2273   
     430;   392.4547;         2290   
     431;   393.3299;         2283   
     432;   394.2052;         2332   
     433;   395.0805;         2388   
     434;   395.9558;         2331   
     435;   396.8310;         2295   
     436;   397.7063;         2367   
     437;   398.5816;         2374   
     438;   399.4569;         2381   
     439;   400.3321;         2346   
     440;   401.2074;         2421   
     441;   402.0827;         2423   
     442;   402.9580;         2390   
     443;   403.8332;         2391   
     444;   404.7085;         2412   
     445;   405.5838;         2422   
     446;   406.4591;         2467   
     447;   407.3343;         2407   
     448;   408.2096;         2525   
     449;   409.0849;         2430   
     450;   409.9602;         2602   
     451;   410.8354;         2683   
     452;   411.7107;         2578   
     453;   412.5860;         2408   
     454;   413.4613;         2585   
     455;   414.3365;         2419   
     456;   415.2118;         2612   
     457;   416.0871;         2587   
     458;   416.9624;         2551   
     459;   417.8376;         2482   
     460;   418.7129;         2587   
     461;   419.5882;         2572   
     462;   420.4635;         2679   
     463;   421.3387;         2537   
     464;   422.2140;         2555   
     465;   423.0893;         2489   
     466;   423.9646;         2579   
     467;   424.8398;         2554   
     468;   425.7151;         2669   
     469;   426.5904;         2725   
     470;   427.4657;         2700   
     471;   428.3409;         2619   
     472;   429.2162;         2666   
     473;   430.0915;         2699   
     474;   430.9668;         2657   
     475;   431.8420;         2639   
     476;   432.7173;         2765   
     477;   433.5926;         2735   
     478;   434.4679;         2808   
     479;   435.3431;         2860   
     480;   436.2184;         2848   
     481;   437.0937;         2703   
     482;   437.9690;         2863   
     483;   438.8442;         2830   
     484;   439.7195;         2752   
     485;   440.5948;         2839   
     486;   441.4701;         2857   
     487;   442.3453;         2871   
     488;   443.2206;         3193   
     489;   444.0959;         3097   
     490;   444.9712;         2962   
     491;   445.8464;         3023   
     492;   446.7217;         2952   
     493;   447.5970;         2898   
     494;   448.4723;         2999   
     495;   449.3475;         3031   
     496;   450.2228;         3013   
     497;   451.0981;         2958   
     498;   451.9734;         3072   
     499;   452.8486;         3046   
     500;   453.7239;         2959   
     501;   454.5992;         3104   
     502;   455.4745;         3096   
     503;   456.3497;         3021   
     504;   457.2250;         3119   
     505;   458.1003;         3073   
     506;   458.9756;         3137   
     507;   459.8508;         3110   
     508;   460.7261;         3215   
     509;   461.6014;         3131   
     510;   462.4767;         3087   
     511;   463.3519;         3257   
     512;   464.2272;         3109   
