Kanal;   Energie(keV); Impulse
       1;    16.9617;         1571   
       2;    17.8370;         1651   
       3;    18.7122;         1633   
       4;    19.5875;         1526   
       5;    20.4628;         1554   
       6;    21.3381;         1421   
       7;    22.2133;         1420   
       8;    23.0886;         1413   
       9;    23.9639;         1323   
      10;    24.8392;         1369   
      11;    25.7144;         1361   
      12;    26.5897;         1275   
      13;    27.4650;         1291   
      14;    28.3403;         1290   
      15;    29.2155;         1274   
      16;    30.0908;         1236   
      17;    30.9661;         1224   
      18;    31.8414;         1171   
      19;    32.7166;         1173   
      20;    33.5919;         1159   
      21;    34.4672;         1226   
      22;    35.3425;         1202   
      23;    36.2177;         1224   
      24;    37.0930;         1173   
      25;    37.9683;         1238   
      26;    38.8436;         1208   
      27;    39.7188;         1188   
      28;    40.5941;         1209   
      29;    41.4694;         1398   
      30;    42.3447;         1663   
      31;    43.2199;         1697   
      32;    44.0952;         1182   
      33;    44.9705;         1044   
      34;    45.8458;         1012   
      35;    46.7210;         1070   
      36;    47.5963;         1559   
      37;    48.4716;         1719   
      38;    49.3469;         1249   
      39;    50.2221;          986   
      40;    51.0974;          938   
      41;    51.9727;          915   
      42;    52.8480;          868   
      43;    53.7232;          906   
      44;    54.5985;          847   
      45;    55.4738;          858   
      46;    56.3491;          857   
      47;    57.2243;          842   
      48;    58.0996;          861   
      49;    58.9749;          912   
      50;    59.8502;          866   
      51;    60.7254;          888   
      52;    61.6007;          810   
      53;    62.4760;          889   
      54;    63.3513;          883   
      55;    64.2265;          910   
      56;    65.1018;          892   
      57;    65.9771;          886   
      58;    66.8524;          900   
      59;    67.7276;          889   
      60;    68.6029;          887   
      61;    69.4782;          914   
      62;    70.3535;          985   
      63;    71.2287;          957   
      64;    72.1040;          956   
      65;    72.9793;          974   
      66;    73.8546;         1002   
      67;    74.7298;         1432   
      68;    75.6051;         1846   
      69;    76.4804;         1670   
      70;    77.3557;         2398   
      71;    78.2309;         2249   
      72;    79.1062;         1311   
      73;    79.9815;         1053   
      74;    80.8568;         1068   
      75;    81.7320;         1129   
      76;    82.6073;         1146   
      77;    83.4826;         1237   
      78;    84.3579;         1412   
      79;    85.2331;         1515   
      80;    86.1084;         1706   
      81;    86.9837;         2197   
      82;    87.8590;         2513   
      83;    88.7342;         2113   
      84;    89.6095;         1888   
      85;    90.4848;         1913   
      86;    91.3601;         1558   
      87;    92.2353;         1466   
      88;    93.1106;         1426   
      89;    93.9859;         1457   
      90;    94.8612;         1474   
      91;    95.7364;         1377   
      92;    96.6117;         1378   
      93;    97.4870;         1372   
      94;    98.3623;         1384   
      95;    99.2375;         1287   
      96;   100.1128;         1238   
      97;   100.9881;         1428   
      98;   101.8634;         1369   
      99;   102.7386;         1341   
     100;   103.6139;         1312   
     101;   104.4892;         1323   
     102;   105.3645;         1295   
     103;   106.2397;         1358   
     104;   107.1150;         1395   
     105;   107.9903;         1387   
     106;   108.8656;         1407   
     107;   109.7408;         1420   
     108;   110.6161;         1372   
     109;   111.4914;         1420   
     110;   112.3667;         1387   
     111;   113.2419;         1426   
     112;   114.1172;         1451   
     113;   114.9925;         1463   
     114;   115.8678;         1489   
     115;   116.7430;         1491   
     116;   117.6183;         1469   
     117;   118.4936;         1404   
     118;   119.3689;         1542   
     119;   120.2441;         1542   
     120;   121.1194;         1557   
     121;   121.9947;         1585   
     122;   122.8700;         2602   
     123;   123.7452;        14303   
     124;   124.6205;        44116   
     125;   125.4958;        31320   
     126;   126.3711;         5905   
     127;   127.2463;         1653   
     128;   128.1216;         1359   
     129;   128.9969;         1333   
     130;   129.8722;         1280   
     131;   130.7474;         1179   
     132;   131.6227;         1168   
     133;   132.4980;         1065   
     134;   133.3733;         1079   
     135;   134.2485;         1056   
     136;   135.1238;         1057   
     137;   135.9991;         1089   
     138;   136.8744;         1004   
     139;   137.7496;         1044   
     140;   138.6249;         1012   
     141;   139.5002;          985   
     142;   140.3755;         1039   
     143;   141.2507;          995   
     144;   142.1260;         1038   
     145;   143.0013;          966   
     146;   143.8766;         1028   
     147;   144.7518;         1029   
     148;   145.6271;         1034   
     149;   146.5024;          966   
     150;   147.3777;         1013   
     151;   148.2529;         1075   
     152;   149.1282;         1125   
     153;   150.0035;         1185   
     154;   150.8788;         1243   
     155;   151.7540;         1172   
     156;   152.6293;         1240   
     157;   153.5046;         1198   
     158;   154.3799;         1236   
     159;   155.2551;         1121   
     160;   156.1304;         1221   
     161;   157.0057;         1229   
     162;   157.8810;         1222   
     163;   158.7562;         1240   
     164;   159.6315;         1193   
     165;   160.5068;         1201   
     166;   161.3821;         1170   
     167;   162.2573;         1164   
     168;   163.1326;         1154   
     169;   164.0079;         1181   
     170;   164.8832;         1157   
     171;   165.7584;         1182   
     172;   166.6337;         1150   
     173;   167.5090;         1125   
     174;   168.3843;         1085   
     175;   169.2595;         1101   
     176;   170.1348;         1137   
     177;   171.0101;         1093   
     178;   171.8854;         1026   
     179;   172.7606;         1081   
     180;   173.6359;         1086   
     181;   174.5112;         1080   
     182;   175.3865;         1016   
     183;   176.2617;         1121   
     184;   177.1370;         1080   
     185;   178.0123;         1100   
     186;   178.8876;         1033   
     187;   179.7628;         1097   
     188;   180.6381;          980   
     189;   181.5134;         1017   
     190;   182.3887;         1078   
     191;   183.2639;          977   
     192;   184.1392;         1039   
     193;   185.0145;         1102   
     194;   185.8898;         1023   
     195;   186.7650;         1039   
     196;   187.6403;         1064   
     197;   188.5156;         1071   
     198;   189.3909;         1015   
     199;   190.2661;         1008   
     200;   191.1414;         1017   
     201;   192.0167;         1079   
     202;   192.8920;          999   
     203;   193.7672;         1022   
     204;   194.6425;          991   
     205;   195.5178;         1019   
     206;   196.3931;         1004   
     207;   197.2683;         1013   
     208;   198.1436;         1080   
     209;   199.0189;          981   
     210;   199.8942;          984   
     211;   200.7694;          969   
     212;   201.6447;          942   
     213;   202.5200;          967   
     214;   203.3953;          923   
     215;   204.2705;          897   
     216;   205.1458;          935   
     217;   206.0211;          903   
     218;   206.8964;          917   
     219;   207.7716;          951   
     220;   208.6469;          873   
     221;   209.5222;          917   
     222;   210.3975;          932   
     223;   211.2727;          896   
     224;   212.1480;          938   
     225;   213.0233;          887   
     226;   213.8986;          873   
     227;   214.7738;          874   
     228;   215.6491;          924   
     229;   216.5244;          905   
     230;   217.3997;          921   
     231;   218.2749;          854   
     232;   219.1502;          786   
     233;   220.0255;          860   
     234;   220.9008;          905   
     235;   221.7760;          897   
     236;   222.6513;          808   
     237;   223.5266;          849   
     238;   224.4019;          841   
     239;   225.2771;          829   
     240;   226.1524;          827   
     241;   227.0277;          879   
     242;   227.9030;          820   
     243;   228.7782;          809   
     244;   229.6535;          785   
     245;   230.5288;          862   
     246;   231.4041;          774   
     247;   232.2793;          800   
     248;   233.1546;          798   
     249;   234.0299;          780   
     250;   234.9052;          757   
     251;   235.7804;          756   
     252;   236.6557;          765   
     253;   237.5310;          758   
     254;   238.4063;          764   
     255;   239.2815;          717   
     256;   240.1568;          718   
     257;   241.0321;          773   
     258;   241.9074;          727   
     259;   242.7826;          733   
     260;   243.6579;          749   
     261;   244.5332;          677   
     262;   245.4085;          782   
     263;   246.2837;          783   
     264;   247.1590;         1860   
     265;   248.0343;         6941   
     266;   248.9096;         8903   
     267;   249.7848;         3228   
     268;   250.6601;          911   
     269;   251.5354;          696   
     270;   252.4107;          773   
     271;   253.2859;          653   
     272;   254.1612;          622   
     273;   255.0365;          655   
     274;   255.9118;          614   
     275;   256.7870;          635   
     276;   257.6623;          637   
     277;   258.5376;          577   
     278;   259.4129;          610   
     279;   260.2881;          603   
     280;   261.1634;          543   
     281;   262.0387;          518   
     282;   262.9140;          566   
     283;   263.7892;          539   
     284;   264.6645;          542   
     285;   265.5398;          547   
     286;   266.4151;          547   
     287;   267.2903;          500   
     288;   268.1656;          566   
     289;   269.0409;          532   
     290;   269.9162;          488   
     291;   270.7914;          532   
     292;   271.6667;          569   
     293;   272.5420;          556   
     294;   273.4173;          533   
     295;   274.2925;          569   
     296;   275.1678;          612   
     297;   276.0431;          540   
     298;   276.9184;          510   
     299;   277.7936;          461   
     300;   278.6689;          525   
     301;   279.5442;          539   
     302;   280.4195;          490   
     303;   281.2947;          508   
     304;   282.1700;          531   
     305;   283.0453;          470   
     306;   283.9206;          486   
     307;   284.7958;          476   
     308;   285.6711;          468   
     309;   286.5464;          499   
     310;   287.4217;          488   
     311;   288.2969;          462   
     312;   289.1722;          485   
     313;   290.0475;          456   
     314;   290.9228;          488   
     315;   291.7980;          472   
     316;   292.6733;          462   
     317;   293.5486;          453   
     318;   294.4239;          434   
     319;   295.2991;          426   
     320;   296.1744;          442   
     321;   297.0497;          456   
     322;   297.9250;          413   
     323;   298.8002;          527   
     324;   299.6755;          768   
     325;   300.5508;          835   
     326;   301.4261;          570   
     327;   302.3013;          506   
     328;   303.1766;          447   
     329;   304.0519;          432   
     330;   304.9272;          425   
     331;   305.8024;          438   
     332;   306.6777;          410   
     333;   307.5530;          432   
     334;   308.4283;          397   
     335;   309.3035;          443   
     336;   310.1788;          400   
     337;   311.0541;          391   
     338;   311.9294;          419   
     339;   312.8046;          389   
     340;   313.6799;          408   
     341;   314.5552;          419   
     342;   315.4305;          399   
     343;   316.3057;          388   
     344;   317.1810;          403   
     345;   318.0563;          396   
     346;   318.9316;          450   
     347;   319.8068;          475   
     348;   320.6821;          413   
     349;   321.5574;          440   
     350;   322.4327;          378   
     351;   323.3079;          400   
     352;   324.1832;          401   
     353;   325.0585;          382   
     354;   325.9338;          391   
     355;   326.8090;          435   
     356;   327.6843;          386   
     357;   328.5596;          392   
     358;   329.4349;          504   
     359;   330.3101;          430   
     360;   331.1854;          380   
     361;   332.0607;          433   
     362;   332.9360;          393   
     363;   333.8112;          487   
     364;   334.6865;          454   
     365;   335.5618;          382   
     366;   336.4371;          428   
     367;   337.3123;          374   
     368;   338.1876;          378   
     369;   339.0629;          342   
     370;   339.9382;          351   
     371;   340.8134;          399   
     372;   341.6887;          383   
     373;   342.5640;          368   
     374;   343.4393;          351   
     375;   344.3145;          388   
     376;   345.1898;          420   
     377;   346.0651;          437   
     378;   346.9404;         1164   
     379;   347.8156;         7821   
     380;   348.6909;        21445   
     381;   349.5662;        16193   
     382;   350.4415;         3627   
     383;   351.3167;          699   
     384;   352.1920;          527   
     385;   353.0673;          470   
     386;   353.9426;          440   
     387;   354.8178;          381   
     388;   355.6931;          379   
     389;   356.5684;          404   
     390;   357.4437;          371   
     391;   358.3189;          309   
     392;   359.1942;          357   
     393;   360.0695;          309   
     394;   360.9448;          335   
     395;   361.8200;          316   
     396;   362.6953;          343   
     397;   363.5706;          343   
     398;   364.4459;          346   
     399;   365.3211;          296   
     400;   366.1964;          305   
     401;   367.0717;          343   
     402;   367.9470;          329   
     403;   368.8222;          329   
     404;   369.6975;          330   
     405;   370.5728;          359   
     406;   371.4481;          538   
     407;   372.3233;          904   
     408;   373.1986;          815   
     409;   374.0739;          409   
     410;   374.9492;          341   
     411;   375.8244;          339   
     412;   376.6997;          301   
     413;   377.5750;          311   
     414;   378.4503;          337   
     415;   379.3255;          321   
     416;   380.2008;          327   
     417;   381.0761;          305   
     418;   381.9514;          330   
     419;   382.8266;          309   
     420;   383.7019;          308   
     421;   384.5772;          314   
     422;   385.4525;          305   
     423;   386.3277;          295   
     424;   387.2030;          302   
     425;   388.0783;          312   
     426;   388.9536;          302   
     427;   389.8288;          287   
     428;   390.7041;          341   
     429;   391.5794;          317   
     430;   392.4547;          305   
     431;   393.3299;          302   
     432;   394.2052;          318   
     433;   395.0805;          282   
     434;   395.9558;          314   
     435;   396.8310;          301   
     436;   397.7063;          291   
     437;   398.5816;          285   
     438;   399.4569;          304   
     439;   400.3321;          296   
     440;   401.2074;          327   
     441;   402.0827;          256   
     442;   402.9580;          300   
     443;   403.8332;          279   
     444;   404.7085;          325   
     445;   405.5838;          314   
     446;   406.4591;          308   
     447;   407.3343;          274   
     448;   408.2096;          269   
     449;   409.0849;          300   
     450;   409.9602;          272   
     451;   410.8354;          276   
     452;   411.7107;          276   
     453;   412.5860;          303   
     454;   413.4613;          293   
     455;   414.3365;          378   
     456;   415.2118;          923   
     457;   416.0871;         1775   
     458;   416.9624;         1301   
     459;   417.8376;          513   
     460;   418.7129;          310   
     461;   419.5882;          312   
     462;   420.4635;          360   
     463;   421.3387;          379   
     464;   422.2140;          291   
     465;   423.0893;          274   
     466;   423.9646;          319   
     467;   424.8398;          275   
     468;   425.7151;          280   
     469;   426.5904;          286   
     470;   427.4657;          271   
     471;   428.3409;          294   
     472;   429.2162;          274   
     473;   430.0915;          267   
     474;   430.9668;          273   
     475;   431.8420;          258   
     476;   432.7173;          293   
     477;   433.5926;          271   
     478;   434.4679;          304   
     479;   435.3431;          283   
     480;   436.2184;          285   
     481;   437.0937;          286   
     482;   437.9690;          269   
     483;   438.8442;          270   
     484;   439.7195;          289   
     485;   440.5948;          293   
     486;   441.4701;          256   
     487;   442.3453;          278   
     488;   443.2206;          298   
     489;   444.0959;          263   
     490;   444.9712;          273   
     491;   445.8464;          288   
     492;   446.7217;          285   
     493;   447.5970;          473   
     494;   448.4723;         1346   
     495;   449.3475;         2211   
     496;   450.2228;         1358   
     497;   451.0981;          421   
     498;   451.9734;          305   
     499;   452.8486;          263   
     500;   453.7239;          285   
     501;   454.5992;          304   
     502;   455.4745;          255   
     503;   456.3497;          277   
     504;   457.2250;          287   
     505;   458.1003;          276   
     506;   458.9756;          277   
     507;   459.8508;          289   
     508;   460.7261;          265   
     509;   461.6014;          262   
     510;   462.4767;          265   
     511;   463.3519;          249   
     512;   464.2272;          251   
