Kanal;   Energie(keV); Impulse
       1;    16.9617;          627   
       2;    17.8370;          612   
       3;    18.7122;          662   
       4;    19.5875;          615   
       5;    20.4628;          577   
       6;    21.3381;          539   
       7;    22.2133;          569   
       8;    23.0886;          566   
       9;    23.9639;          572   
      10;    24.8392;          522   
      11;    25.7144;          486   
      12;    26.5897;          470   
      13;    27.4650;          469   
      14;    28.3403;          474   
      15;    29.2155;          462   
      16;    30.0908;          439   
      17;    30.9661;          483   
      18;    31.8414;          445   
      19;    32.7166;          480   
      20;    33.5919;          479   
      21;    34.4672;          487   
      22;    35.3425;          445   
      23;    36.2177;          410   
      24;    37.0930;          444   
      25;    37.9683;          463   
      26;    38.8436;          472   
      27;    39.7188;          453   
      28;    40.5941;          450   
      29;    41.4694;          530   
      30;    42.3447;          545   
      31;    43.2199;          564   
      32;    44.0952;          453   
      33;    44.9705;          429   
      34;    45.8458;          393   
      35;    46.7210;          473   
      36;    47.5963;          546   
      37;    48.4716;          564   
      38;    49.3469;          477   
      39;    50.2221;          373   
      40;    51.0974;          389   
      41;    51.9727;          360   
      42;    52.8480;          384   
      43;    53.7232;          403   
      44;    54.5985;          352   
      45;    55.4738;          325   
      46;    56.3491;          355   
      47;    57.2243;          347   
      48;    58.0996;          360   
      49;    58.9749;          357   
      50;    59.8502;          359   
      51;    60.7254;          390   
      52;    61.6007;          363   
      53;    62.4760;          365   
      54;    63.3513;          383   
      55;    64.2265;          346   
      56;    65.1018;          385   
      57;    65.9771;          417   
      58;    66.8524;          414   
      59;    67.7276;          433   
      60;    68.6029;          391   
      61;    69.4782;          432   
      62;    70.3535;          421   
      63;    71.2287;          431   
      64;    72.1040;          424   
      65;    72.9793;          505   
      66;    73.8546;          481   
      67;    74.7298;          702   
      68;    75.6051;         1059   
      69;    76.4804;          970   
      70;    77.3557;         1459   
      71;    78.2309;         1284   
      72;    79.1062;          634   
      73;    79.9815;          513   
      74;    80.8568;          526   
      75;    81.7320;          510   
      76;    82.6073;          540   
      77;    83.4826;          577   
      78;    84.3579;          569   
      79;    85.2331;          671   
      80;    86.1084;          811   
      81;    86.9837;         1102   
      82;    87.8590;         1189   
      83;    88.7342;          974   
      84;    89.6095;          829   
      85;    90.4848;          772   
      86;    91.3601;          718   
      87;    92.2353;          681   
      88;    93.1106;          610   
      89;    93.9859;          599   
      90;    94.8612;          663   
      91;    95.7364;          680   
      92;    96.6117;          679   
      93;    97.4870;          662   
      94;    98.3623;          642   
      95;    99.2375;          632   
      96;   100.1128;          668   
      97;   100.9881;          596   
      98;   101.8634;          666   
      99;   102.7386;          579   
     100;   103.6139;          628   
     101;   104.4892;          661   
     102;   105.3645;          671   
     103;   106.2397;          617   
     104;   107.1150;          651   
     105;   107.9903;          594   
     106;   108.8656;          652   
     107;   109.7408;          632   
     108;   110.6161;          659   
     109;   111.4914;          642   
     110;   112.3667;          631   
     111;   113.2419;          627   
     112;   114.1172;          670   
     113;   114.9925;          639   
     114;   115.8678;          650   
     115;   116.7430;          673   
     116;   117.6183;          609   
     117;   118.4936;          646   
     118;   119.3689;          639   
     119;   120.2441;          665   
     120;   121.1194;          640   
     121;   121.9947;          679   
     122;   122.8700;          880   
     123;   123.7452;         4228   
     124;   124.6205;        11650   
     125;   125.4958;         7306   
     126;   126.3711;         1490   
     127;   127.2463;          582   
     128;   128.1216;          590   
     129;   128.9969;          541   
     130;   129.8722;          528   
     131;   130.7474;          520   
     132;   131.6227;          527   
     133;   132.4980;          565   
     134;   133.3733;          536   
     135;   134.2485;          547   
     136;   135.1238;          526   
     137;   135.9991;          500   
     138;   136.8744;          519   
     139;   137.7496;          501   
     140;   138.6249;          516   
     141;   139.5002;          536   
     142;   140.3755;          523   
     143;   141.2507;          540   
     144;   142.1260;          519   
     145;   143.0013;          486   
     146;   143.8766;          504   
     147;   144.7518;          454   
     148;   145.6271;          487   
     149;   146.5024;          498   
     150;   147.3777;          470   
     151;   148.2529;          526   
     152;   149.1282;          534   
     153;   150.0035;          558   
     154;   150.8788;          501   
     155;   151.7540;          563   
     156;   152.6293;          566   
     157;   153.5046;          516   
     158;   154.3799;          516   
     159;   155.2551;          564   
     160;   156.1304;          552   
     161;   157.0057;          531   
     162;   157.8810;          521   
     163;   158.7562;          520   
     164;   159.6315;          534   
     165;   160.5068;          529   
     166;   161.3821;          471   
     167;   162.2573;          501   
     168;   163.1326;          500   
     169;   164.0079;          502   
     170;   164.8832;          492   
     171;   165.7584;          516   
     172;   166.6337;          531   
     173;   167.5090;          464   
     174;   168.3843;          489   
     175;   169.2595;          472   
     176;   170.1348;          472   
     177;   171.0101;          469   
     178;   171.8854;          475   
     179;   172.7606;          532   
     180;   173.6359;          495   
     181;   174.5112;          493   
     182;   175.3865;          480   
     183;   176.2617;          474   
     184;   177.1370;          482   
     185;   178.0123;          479   
     186;   178.8876;          481   
     187;   179.7628;          484   
     188;   180.6381;          504   
     189;   181.5134;          440   
     190;   182.3887;          441   
     191;   183.2639;          455   
     192;   184.1392;          446   
     193;   185.0145;          426   
     194;   185.8898;          470   
     195;   186.7650;          446   
     196;   187.6403;          440   
     197;   188.5156;          465   
     198;   189.3909;          485   
     199;   190.2661;          429   
     200;   191.1414;          430   
     201;   192.0167;          416   
     202;   192.8920;          439   
     203;   193.7672;          430   
     204;   194.6425;          472   
     205;   195.5178;          442   
     206;   196.3931;          446   
     207;   197.2683;          443   
     208;   198.1436;          422   
     209;   199.0189;          411   
     210;   199.8942;          461   
     211;   200.7694;          397   
     212;   201.6447;          391   
     213;   202.5200;          419   
     214;   203.3953;          364   
     215;   204.2705;          378   
     216;   205.1458;          396   
     217;   206.0211;          400   
     218;   206.8964;          386   
     219;   207.7716;          386   
     220;   208.6469;          396   
     221;   209.5222;          389   
     222;   210.3975;          387   
     223;   211.2727;          383   
     224;   212.1480;          424   
     225;   213.0233;          397   
     226;   213.8986;          404   
     227;   214.7738;          359   
     228;   215.6491;          387   
     229;   216.5244;          390   
     230;   217.3997;          388   
     231;   218.2749;          377   
     232;   219.1502;          349   
     233;   220.0255;          363   
     234;   220.9008;          356   
     235;   221.7760;          391   
     236;   222.6513;          322   
     237;   223.5266;          360   
     238;   224.4019;          359   
     239;   225.2771;          348   
     240;   226.1524;          334   
     241;   227.0277;          345   
     242;   227.9030;          314   
     243;   228.7782;          336   
     244;   229.6535;          332   
     245;   230.5288;          323   
     246;   231.4041;          330   
     247;   232.2793;          292   
     248;   233.1546;          325   
     249;   234.0299;          352   
     250;   234.9052;          313   
     251;   235.7804;          297   
     252;   236.6557;          307   
     253;   237.5310;          299   
     254;   238.4063;          305   
     255;   239.2815;          280   
     256;   240.1568;          287   
     257;   241.0321;          291   
     258;   241.9074;          349   
     259;   242.7826;          380   
     260;   243.6579;          294   
     261;   244.5332;          286   
     262;   245.4085;          274   
     263;   246.2837;          325   
     264;   247.1590;          636   
     265;   248.0343;         2112   
     266;   248.9096;         2283   
     267;   249.7848;          821   
     268;   250.6601;          304   
     269;   251.5354;          283   
     270;   252.4107;          256   
     271;   253.2859;          247   
     272;   254.1612;          238   
     273;   255.0365;          258   
     274;   255.9118;          250   
     275;   256.7870;          247   
     276;   257.6623;          222   
     277;   258.5376;          229   
     278;   259.4129;          250   
     279;   260.2881;          268   
     280;   261.1634;          269   
     281;   262.0387;          226   
     282;   262.9140;          217   
     283;   263.7892;          267   
     284;   264.6645;          238   
     285;   265.5398;          249   
     286;   266.4151;          225   
     287;   267.2903;          235   
     288;   268.1656;          224   
     289;   269.0409;          242   
     290;   269.9162;          227   
     291;   270.7914;          240   
     292;   271.6667;          236   
     293;   272.5420;          221   
     294;   273.4173;          230   
     295;   274.2925;          240   
     296;   275.1678;          235   
     297;   276.0431;          242   
     298;   276.9184;          196   
     299;   277.7936;          217   
     300;   278.6689;          201   
     301;   279.5442;          225   
     302;   280.4195;          210   
     303;   281.2947;          203   
     304;   282.1700;          215   
     305;   283.0453;          223   
     306;   283.9206;          194   
     307;   284.7958;          198   
     308;   285.6711;          194   
     309;   286.5464;          192   
     310;   287.4217;          197   
     311;   288.2969;          226   
     312;   289.1722;          207   
     313;   290.0475;          183   
     314;   290.9228;          216   
     315;   291.7980;          197   
     316;   292.6733;          193   
     317;   293.5486;          204   
     318;   294.4239;          170   
     319;   295.2991;          202   
     320;   296.1744;          214   
     321;   297.0497;          204   
     322;   297.9250;          184   
     323;   298.8002;          234   
     324;   299.6755;          312   
     325;   300.5508;          273   
     326;   301.4261;          221   
     327;   302.3013;          200   
     328;   303.1766;          202   
     329;   304.0519;          194   
     330;   304.9272;          161   
     331;   305.8024;          161   
     332;   306.6777;          165   
     333;   307.5530;          162   
     334;   308.4283;          177   
     335;   309.3035;          175   
     336;   310.1788;          189   
     337;   311.0541;          183   
     338;   311.9294;          157   
     339;   312.8046;          162   
     340;   313.6799;          167   
     341;   314.5552;          163   
     342;   315.4305;          160   
     343;   316.3057;          152   
     344;   317.1810;          161   
     345;   318.0563;          199   
     346;   318.9316;          169   
     347;   319.8068;          184   
     348;   320.6821;          183   
     349;   321.5574;          182   
     350;   322.4327;          175   
     351;   323.3079;          175   
     352;   324.1832;          170   
     353;   325.0585;          170   
     354;   325.9338;          157   
     355;   326.8090;          173   
     356;   327.6843;          170   
     357;   328.5596;          176   
     358;   329.4349;          176   
     359;   330.3101;          191   
     360;   331.1854;          174   
     361;   332.0607;          138   
     362;   332.9360;          170   
     363;   333.8112;          199   
     364;   334.6865;          166   
     365;   335.5618;          150   
     366;   336.4371;          169   
     367;   337.3123;          151   
     368;   338.1876;          140   
     369;   339.0629;          187   
     370;   339.9382;          167   
     371;   340.8134;          155   
     372;   341.6887;          146   
     373;   342.5640;          176   
     374;   343.4393;          160   
     375;   344.3145;          163   
     376;   345.1898;          149   
     377;   346.0651;          165   
     378;   346.9404;          407   
     379;   347.8156;         2673   
     380;   348.6909;         6058   
     381;   349.5662;         3564   
     382;   350.4415;          702   
     383;   351.3167;          177   
     384;   352.1920;          127   
     385;   353.0673;          140   
     386;   353.9426;          129   
     387;   354.8178;          133   
     388;   355.6931;          156   
     389;   356.5684;          179   
     390;   357.4437;          162   
     391;   358.3189;          135   
     392;   359.1942;          129   
     393;   360.0695;          104   
     394;   360.9448;          125   
     395;   361.8200;          121   
     396;   362.6953;          124   
     397;   363.5706;          125   
     398;   364.4459;          143   
     399;   365.3211;          134   
     400;   366.1964;          124   
     401;   367.0717;          123   
     402;   367.9470;          102   
     403;   368.8222;          141   
     404;   369.6975;          129   
     405;   370.5728;          133   
     406;   371.4481;          168   
     407;   372.3233;          315   
     408;   373.1986;          215   
     409;   374.0739;          123   
     410;   374.9492;          149   
     411;   375.8244;          127   
     412;   376.6997;          137   
     413;   377.5750;          126   
     414;   378.4503;          115   
     415;   379.3255;          120   
     416;   380.2008;           98   
     417;   381.0761;          122   
     418;   381.9514;          117   
     419;   382.8266;          111   
     420;   383.7019;          119   
     421;   384.5772;          115   
     422;   385.4525;          105   
     423;   386.3277;          118   
     424;   387.2030;          104   
     425;   388.0783;          106   
     426;   388.9536;          116   
     427;   389.8288;          126   
     428;   390.7041;          119   
     429;   391.5794;          128   
     430;   392.4547;          115   
     431;   393.3299;          103   
     432;   394.2052;          124   
     433;   395.0805;          105   
     434;   395.9558;          114   
     435;   396.8310;          127   
     436;   397.7063;          100   
     437;   398.5816;          104   
     438;   399.4569;          104   
     439;   400.3321;           97   
     440;   401.2074;          102   
     441;   402.0827;          102   
     442;   402.9580;           99   
     443;   403.8332;          103   
     444;   404.7085;           93   
     445;   405.5838;           84   
     446;   406.4591;           92   
     447;   407.3343;          125   
     448;   408.2096;          119   
     449;   409.0849;          103   
     450;   409.9602;          104   
     451;   410.8354;          115   
     452;   411.7107;           95   
     453;   412.5860;          123   
     454;   413.4613;          116   
     455;   414.3365;          133   
     456;   415.2118;          341   
     457;   416.0871;          465   
     458;   416.9624;          315   
     459;   417.8376;          143   
     460;   418.7129;           91   
     461;   419.5882;          108   
     462;   420.4635;          121   
     463;   421.3387;          129   
     464;   422.2140;          103   
     465;   423.0893;           98   
     466;   423.9646;           88   
     467;   424.8398;           94   
     468;   425.7151;          114   
     469;   426.5904;           99   
     470;   427.4657;          119   
     471;   428.3409;          112   
     472;   429.2162;           95   
     473;   430.0915;           99   
     474;   430.9668;           98   
     475;   431.8420;           88   
     476;   432.7173;          100   
     477;   433.5926;          107   
     478;   434.4679;          111   
     479;   435.3431;           98   
     480;   436.2184;          118   
     481;   437.0937;           98   
     482;   437.9690;          106   
     483;   438.8442;           95   
     484;   439.7195;           91   
     485;   440.5948;           93   
     486;   441.4701;          111   
     487;   442.3453;          107   
     488;   443.2206;          110   
     489;   444.0959;          101   
     490;   444.9712;           66   
     491;   445.8464;          115   
     492;   446.7217;          111   
     493;   447.5970;          181   
     494;   448.4723;          441   
     495;   449.3475;          636   
     496;   450.2228;          324   
     497;   451.0981;          126   
     498;   451.9734;           98   
     499;   452.8486;          108   
     500;   453.7239;           82   
     501;   454.5992;           79   
     502;   455.4745;           87   
     503;   456.3497;          111   
     504;   457.2250;           93   
     505;   458.1003;          100   
     506;   458.9756;           94   
     507;   459.8508;          108   
     508;   460.7261;           79   
     509;   461.6014;           78   
     510;   462.4767;          107   
     511;   463.3519;           83   
     512;   464.2272;           93   
