Kanal;   Energie(keV); Impulse
       1;    16.9617;          442   
       2;    17.8370;          513   
       3;    18.7122;          428   
       4;    19.5875;          437   
       5;    20.4628;          413   
       6;    21.3381;          374   
       7;    22.2133;          391   
       8;    23.0886;          375   
       9;    23.9639;          343   
      10;    24.8392;          375   
      11;    25.7144;          355   
      12;    26.5897;          318   
      13;    27.4650;          353   
      14;    28.3403;          341   
      15;    29.2155;          291   
      16;    30.0908;          309   
      17;    30.9661;          313   
      18;    31.8414;          324   
      19;    32.7166;          318   
      20;    33.5919;          322   
      21;    34.4672;          306   
      22;    35.3425;          307   
      23;    36.2177;          312   
      24;    37.0930;          315   
      25;    37.9683;          304   
      26;    38.8436;          319   
      27;    39.7188;          289   
      28;    40.5941;          326   
      29;    41.4694;          306   
      30;    42.3447;          315   
      31;    43.2199;          302   
      32;    44.0952;          275   
      33;    44.9705;          292   
      34;    45.8458;          265   
      35;    46.7210;          270   
      36;    47.5963;          285   
      37;    48.4716;          335   
      38;    49.3469;          306   
      39;    50.2221;          257   
      40;    51.0974;          246   
      41;    51.9727;          259   
      42;    52.8480;          278   
      43;    53.7232;          260   
      44;    54.5985;          247   
      45;    55.4738;          274   
      46;    56.3491;          262   
      47;    57.2243;          252   
      48;    58.0996;          261   
      49;    58.9749;          249   
      50;    59.8502;          254   
      51;    60.7254;          272   
      52;    61.6007;          282   
      53;    62.4760;          272   
      54;    63.3513;          276   
      55;    64.2265;          303   
      56;    65.1018;          279   
      57;    65.9771;          276   
      58;    66.8524;          323   
      59;    67.7276;          349   
      60;    68.6029;          305   
      61;    69.4782;          313   
      62;    70.3535;          307   
      63;    71.2287;          347   
      64;    72.1040;          354   
      65;    72.9793;          357   
      66;    73.8546;          408   
      67;    74.7298;          519   
      68;    75.6051;          759   
      69;    76.4804;          640   
      70;    77.3557;         1033   
      71;    78.2309;          951   
      72;    79.1062;          453   
      73;    79.9815;          390   
      74;    80.8568;          375   
      75;    81.7320;          410   
      76;    82.6073;          400   
      77;    83.4826;          425   
      78;    84.3579;          366   
      79;    85.2331;          429   
      80;    86.1084;          460   
      81;    86.9837;          698   
      82;    87.8590;          805   
      83;    88.7342;          626   
      84;    89.6095;          576   
      85;    90.4848;          558   
      86;    91.3601;          495   
      87;    92.2353;          475   
      88;    93.1106;          396   
      89;    93.9859;          432   
      90;    94.8612;          489   
      91;    95.7364;          469   
      92;    96.6117;          483   
      93;    97.4870;          448   
      94;    98.3623;          487   
      95;    99.2375;          474   
      96;   100.1128;          467   
      97;   100.9881;          440   
      98;   101.8634;          444   
      99;   102.7386;          440   
     100;   103.6139;          472   
     101;   104.4892;          464   
     102;   105.3645;          482   
     103;   106.2397;          525   
     104;   107.1150;          498   
     105;   107.9903;          507   
     106;   108.8656;          499   
     107;   109.7408;          471   
     108;   110.6161;          495   
     109;   111.4914;          474   
     110;   112.3667;          510   
     111;   113.2419;          533   
     112;   114.1172;          503   
     113;   114.9925;          497   
     114;   115.8678;          486   
     115;   116.7430;          549   
     116;   117.6183;          513   
     117;   118.4936;          504   
     118;   119.3689;          551   
     119;   120.2441;          503   
     120;   121.1194;          522   
     121;   121.9947;          547   
     122;   122.8700;          610   
     123;   123.7452;         1674   
     124;   124.6205;         4853   
     125;   125.4958;         3746   
     126;   126.3711;          915   
     127;   127.2463;          432   
     128;   128.1216;          396   
     129;   128.9969;          422   
     130;   129.8722;          422   
     131;   130.7474;          441   
     132;   131.6227;          443   
     133;   132.4980;          388   
     134;   133.3733;          388   
     135;   134.2485;          414   
     136;   135.1238;          377   
     137;   135.9991;          438   
     138;   136.8744;          420   
     139;   137.7496;          386   
     140;   138.6249;          423   
     141;   139.5002;          396   
     142;   140.3755;          440   
     143;   141.2507;          410   
     144;   142.1260;          418   
     145;   143.0013;          360   
     146;   143.8766;          383   
     147;   144.7518;          412   
     148;   145.6271;          405   
     149;   146.5024;          431   
     150;   147.3777;          386   
     151;   148.2529;          396   
     152;   149.1282;          430   
     153;   150.0035;          407   
     154;   150.8788;          383   
     155;   151.7540;          390   
     156;   152.6293;          445   
     157;   153.5046;          415   
     158;   154.3799;          379   
     159;   155.2551;          388   
     160;   156.1304;          408   
     161;   157.0057;          427   
     162;   157.8810;          386   
     163;   158.7562;          404   
     164;   159.6315;          382   
     165;   160.5068;          383   
     166;   161.3821;          390   
     167;   162.2573;          384   
     168;   163.1326;          384   
     169;   164.0079;          388   
     170;   164.8832;          371   
     171;   165.7584;          382   
     172;   166.6337;          373   
     173;   167.5090;          355   
     174;   168.3843;          353   
     175;   169.2595;          328   
     176;   170.1348;          331   
     177;   171.0101;          351   
     178;   171.8854;          357   
     179;   172.7606;          363   
     180;   173.6359;          345   
     181;   174.5112;          364   
     182;   175.3865;          338   
     183;   176.2617;          388   
     184;   177.1370;          355   
     185;   178.0123;          321   
     186;   178.8876;          318   
     187;   179.7628;          358   
     188;   180.6381;          376   
     189;   181.5134;          368   
     190;   182.3887;          326   
     191;   183.2639;          359   
     192;   184.1392;          335   
     193;   185.0145;          348   
     194;   185.8898;          304   
     195;   186.7650;          361   
     196;   187.6403;          324   
     197;   188.5156;          371   
     198;   189.3909;          328   
     199;   190.2661;          320   
     200;   191.1414;          314   
     201;   192.0167;          310   
     202;   192.8920;          323   
     203;   193.7672;          336   
     204;   194.6425;          319   
     205;   195.5178;          324   
     206;   196.3931;          318   
     207;   197.2683;          329   
     208;   198.1436;          309   
     209;   199.0189;          321   
     210;   199.8942;          320   
     211;   200.7694;          313   
     212;   201.6447;          304   
     213;   202.5200;          272   
     214;   203.3953;          294   
     215;   204.2705;          292   
     216;   205.1458;          310   
     217;   206.0211;          295   
     218;   206.8964;          349   
     219;   207.7716;          302   
     220;   208.6469;          302   
     221;   209.5222;          302   
     222;   210.3975;          300   
     223;   211.2727;          282   
     224;   212.1480;          310   
     225;   213.0233;          302   
     226;   213.8986;          311   
     227;   214.7738;          259   
     228;   215.6491;          293   
     229;   216.5244;          283   
     230;   217.3997;          296   
     231;   218.2749;          283   
     232;   219.1502;          285   
     233;   220.0255;          263   
     234;   220.9008;          279   
     235;   221.7760;          260   
     236;   222.6513;          294   
     237;   223.5266;          279   
     238;   224.4019;          281   
     239;   225.2771;          291   
     240;   226.1524;          246   
     241;   227.0277;          267   
     242;   227.9030;          295   
     243;   228.7782;          239   
     244;   229.6535;          255   
     245;   230.5288;          244   
     246;   231.4041;          231   
     247;   232.2793;          259   
     248;   233.1546;          258   
     249;   234.0299;          238   
     250;   234.9052;          228   
     251;   235.7804;          220   
     252;   236.6557;          243   
     253;   237.5310;          266   
     254;   238.4063;          237   
     255;   239.2815;          231   
     256;   240.1568;          246   
     257;   241.0321;          241   
     258;   241.9074;          286   
     259;   242.7826;          362   
     260;   243.6579;          274   
     261;   244.5332;          267   
     262;   245.4085;          235   
     263;   246.2837;          267   
     264;   247.1590;          316   
     265;   248.0343;          928   
     266;   248.9096;         1318   
     267;   249.7848;          612   
     268;   250.6601;          244   
     269;   251.5354;          247   
     270;   252.4107;          226   
     271;   253.2859;          200   
     272;   254.1612;          197   
     273;   255.0365;          168   
     274;   255.9118;          254   
     275;   256.7870;          219   
     276;   257.6623;          184   
     277;   258.5376;          210   
     278;   259.4129;          190   
     279;   260.2881;          192   
     280;   261.1634;          174   
     281;   262.0387;          225   
     282;   262.9140;          212   
     283;   263.7892;          194   
     284;   264.6645;          183   
     285;   265.5398;          200   
     286;   266.4151;          197   
     287;   267.2903;          206   
     288;   268.1656;          178   
     289;   269.0409;          178   
     290;   269.9162;          211   
     291;   270.7914;          177   
     292;   271.6667;          176   
     293;   272.5420;          195   
     294;   273.4173;          190   
     295;   274.2925;          177   
     296;   275.1678;          199   
     297;   276.0431;          226   
     298;   276.9184;          158   
     299;   277.7936;          196   
     300;   278.6689;          222   
     301;   279.5442;          170   
     302;   280.4195;          167   
     303;   281.2947;          157   
     304;   282.1700;          181   
     305;   283.0453;          185   
     306;   283.9206;          176   
     307;   284.7958;          188   
     308;   285.6711;          144   
     309;   286.5464;          178   
     310;   287.4217;          170   
     311;   288.2969;          171   
     312;   289.1722;          174   
     313;   290.0475;          158   
     314;   290.9228;          179   
     315;   291.7980;          165   
     316;   292.6733;          163   
     317;   293.5486;          136   
     318;   294.4239;          159   
     319;   295.2991;          144   
     320;   296.1744;          133   
     321;   297.0497;          157   
     322;   297.9250;          152   
     323;   298.8002;          192   
     324;   299.6755;          256   
     325;   300.5508;          232   
     326;   301.4261;          179   
     327;   302.3013;          130   
     328;   303.1766;          176   
     329;   304.0519;          144   
     330;   304.9272;          175   
     331;   305.8024;          168   
     332;   306.6777;          142   
     333;   307.5530;          139   
     334;   308.4283;          123   
     335;   309.3035;          167   
     336;   310.1788;          140   
     337;   311.0541;          158   
     338;   311.9294;          150   
     339;   312.8046;          157   
     340;   313.6799;          154   
     341;   314.5552;          150   
     342;   315.4305;          139   
     343;   316.3057;          153   
     344;   317.1810;          150   
     345;   318.0563;          140   
     346;   318.9316;          160   
     347;   319.8068;          143   
     348;   320.6821;          136   
     349;   321.5574;          139   
     350;   322.4327;          132   
     351;   323.3079;          145   
     352;   324.1832;          127   
     353;   325.0585;          152   
     354;   325.9338;          132   
     355;   326.8090;          130   
     356;   327.6843;          121   
     357;   328.5596;          156   
     358;   329.4349;          142   
     359;   330.3101;          161   
     360;   331.1854;          136   
     361;   332.0607;          113   
     362;   332.9360;          154   
     363;   333.8112;          147   
     364;   334.6865;          139   
     365;   335.5618;          140   
     366;   336.4371;          149   
     367;   337.3123;          110   
     368;   338.1876;          114   
     369;   339.0629;          137   
     370;   339.9382;          132   
     371;   340.8134;          140   
     372;   341.6887;          145   
     373;   342.5640;          149   
     374;   343.4393;          146   
     375;   344.3145;          147   
     376;   345.1898;          154   
     377;   346.0651;          107   
     378;   346.9404;          177   
     379;   347.8156;          807   
     380;   348.6909;         2874   
     381;   349.5662;         2616   
     382;   350.4415;          748   
     383;   351.3167;          156   
     384;   352.1920;          109   
     385;   353.0673;           97   
     386;   353.9426;          106   
     387;   354.8178;          122   
     388;   355.6931;          118   
     389;   356.5684;          194   
     390;   357.4437;          155   
     391;   358.3189;           97   
     392;   359.1942;          120   
     393;   360.0695;           93   
     394;   360.9448;           99   
     395;   361.8200;           99   
     396;   362.6953;          108   
     397;   363.5706;          109   
     398;   364.4459;           87   
     399;   365.3211;          108   
     400;   366.1964;          130   
     401;   367.0717;          101   
     402;   367.9470;          100   
     403;   368.8222;           95   
     404;   369.6975;          102   
     405;   370.5728;          104   
     406;   371.4481;          129   
     407;   372.3233;          167   
     408;   373.1986;          168   
     409;   374.0739;          140   
     410;   374.9492;          104   
     411;   375.8244;          121   
     412;   376.6997;          100   
     413;   377.5750;          107   
     414;   378.4503;           87   
     415;   379.3255;           95   
     416;   380.2008;          123   
     417;   381.0761;           88   
     418;   381.9514;          111   
     419;   382.8266;          113   
     420;   383.7019;           95   
     421;   384.5772;           97   
     422;   385.4525;           95   
     423;   386.3277;          106   
     424;   387.2030;          111   
     425;   388.0783;           88   
     426;   388.9536;           94   
     427;   389.8288;           85   
     428;   390.7041;          106   
     429;   391.5794;          108   
     430;   392.4547;           78   
     431;   393.3299;          100   
     432;   394.2052;          101   
     433;   395.0805;           87   
     434;   395.9558;           93   
     435;   396.8310;          107   
     436;   397.7063;           92   
     437;   398.5816;           94   
     438;   399.4569;           75   
     439;   400.3321;           88   
     440;   401.2074;           93   
     441;   402.0827;          102   
     442;   402.9580;           90   
     443;   403.8332;          104   
     444;   404.7085;           78   
     445;   405.5838;           96   
     446;   406.4591;           90   
     447;   407.3343;           96   
     448;   408.2096;           97   
     449;   409.0849;           87   
     450;   409.9602;           82   
     451;   410.8354;           94   
     452;   411.7107;           99   
     453;   412.5860;           83   
     454;   413.4613;           95   
     455;   414.3365;          103   
     456;   415.2118;          148   
     457;   416.0871;          288   
     458;   416.9624;          242   
     459;   417.8376;          165   
     460;   418.7129;           70   
     461;   419.5882;           90   
     462;   420.4635;          102   
     463;   421.3387;          109   
     464;   422.2140;           90   
     465;   423.0893;           78   
     466;   423.9646;           84   
     467;   424.8398;           62   
     468;   425.7151;           78   
     469;   426.5904;          109   
     470;   427.4657;           99   
     471;   428.3409;           82   
     472;   429.2162;           91   
     473;   430.0915;           81   
     474;   430.9668;           86   
     475;   431.8420;          101   
     476;   432.7173;           82   
     477;   433.5926;           85   
     478;   434.4679;           80   
     479;   435.3431;           82   
     480;   436.2184;           93   
     481;   437.0937;           58   
     482;   437.9690;          100   
     483;   438.8442;           89   
     484;   439.7195;          105   
     485;   440.5948;           80   
     486;   441.4701;           96   
     487;   442.3453;           71   
     488;   443.2206;           87   
     489;   444.0959;           88   
     490;   444.9712;           93   
     491;   445.8464;           81   
     492;   446.7217;           62   
     493;   447.5970;           94   
     494;   448.4723;          180   
     495;   449.3475;          359   
     496;   450.2228;          279   
     497;   451.0981;          125   
     498;   451.9734;           74   
     499;   452.8486;           67   
     500;   453.7239;           80   
     501;   454.5992;           55   
     502;   455.4745;           73   
     503;   456.3497;           75   
     504;   457.2250;           78   
     505;   458.1003;           84   
     506;   458.9756;           78   
     507;   459.8508;           89   
     508;   460.7261;           70   
     509;   461.6014;           76   
     510;   462.4767;           63   
     511;   463.3519;           78   
     512;   464.2272;           60   
