Kanal;   Energie(keV); Impulse
       1;    16.9617;          518   
       2;    17.8370;          538   
       3;    18.7122;          522   
       4;    19.5875;          467   
       5;    20.4628;          510   
       6;    21.3381;          442   
       7;    22.2133;          429   
       8;    23.0886;          445   
       9;    23.9639;          465   
      10;    24.8392;          425   
      11;    25.7144;          415   
      12;    26.5897;          395   
      13;    27.4650;          365   
      14;    28.3403;          386   
      15;    29.2155;          382   
      16;    30.0908;          383   
      17;    30.9661;          385   
      18;    31.8414;          388   
      19;    32.7166;          382   
      20;    33.5919;          360   
      21;    34.4672;          395   
      22;    35.3425;          403   
      23;    36.2177;          403   
      24;    37.0930;          350   
      25;    37.9683;          377   
      26;    38.8436;          362   
      27;    39.7188;          358   
      28;    40.5941;          363   
      29;    41.4694;          399   
      30;    42.3447;          398   
      31;    43.2199;          435   
      32;    44.0952;          353   
      33;    44.9705;          345   
      34;    45.8458;          341   
      35;    46.7210;          386   
      36;    47.5963;          408   
      37;    48.4716;          395   
      38;    49.3469;          410   
      39;    50.2221;          339   
      40;    51.0974;          341   
      41;    51.9727;          308   
      42;    52.8480;          323   
      43;    53.7232;          301   
      44;    54.5985;          300   
      45;    55.4738;          307   
      46;    56.3491;          326   
      47;    57.2243;          322   
      48;    58.0996;          319   
      49;    58.9749;          318   
      50;    59.8502;          348   
      51;    60.7254;          306   
      52;    61.6007;          334   
      53;    62.4760;          342   
      54;    63.3513;          299   
      55;    64.2265;          338   
      56;    65.1018;          326   
      57;    65.9771;          343   
      58;    66.8524;          332   
      59;    67.7276;          350   
      60;    68.6029;          336   
      61;    69.4782;          381   
      62;    70.3535;          402   
      63;    71.2287;          372   
      64;    72.1040;          412   
      65;    72.9793;          453   
      66;    73.8546;          431   
      67;    74.7298;          590   
      68;    75.6051;          855   
      69;    76.4804;          695   
      70;    77.3557;         1024   
      71;    78.2309;         1003   
      72;    79.1062;          546   
      73;    79.9815;          450   
      74;    80.8568;          441   
      75;    81.7320;          465   
      76;    82.6073;          455   
      77;    83.4826;          498   
      78;    84.3579;          547   
      79;    85.2331;          551   
      80;    86.1084;          666   
      81;    86.9837;          846   
      82;    87.8590;          936   
      83;    88.7342;          735   
      84;    89.6095;          686   
      85;    90.4848;          686   
      86;    91.3601;          618   
      87;    92.2353;          574   
      88;    93.1106;          573   
      89;    93.9859;          558   
      90;    94.8612;          569   
      91;    95.7364;          571   
      92;    96.6117;          547   
      93;    97.4870;          579   
      94;    98.3623;          560   
      95;    99.2375;          529   
      96;   100.1128;          559   
      97;   100.9881;          560   
      98;   101.8634;          592   
      99;   102.7386;          557   
     100;   103.6139;          551   
     101;   104.4892;          577   
     102;   105.3645;          621   
     103;   106.2397;          587   
     104;   107.1150;          650   
     105;   107.9903;          638   
     106;   108.8656;          671   
     107;   109.7408;          633   
     108;   110.6161;          639   
     109;   111.4914;          616   
     110;   112.3667;          636   
     111;   113.2419;          584   
     112;   114.1172;          584   
     113;   114.9925;          643   
     114;   115.8678;          594   
     115;   116.7430;          570   
     116;   117.6183;          591   
     117;   118.4936;          555   
     118;   119.3689;          623   
     119;   120.2441;          557   
     120;   121.1194;          596   
     121;   121.9947;          596   
     122;   122.8700;          680   
     123;   123.7452;         2336   
     124;   124.6205;         6941   
     125;   125.4958;         4740   
     126;   126.3711;         1109   
     127;   127.2463;          515   
     128;   128.1216;          562   
     129;   128.9969;          531   
     130;   129.8722;          512   
     131;   130.7474;          549   
     132;   131.6227;          459   
     133;   132.4980;          502   
     134;   133.3733;          509   
     135;   134.2485;          470   
     136;   135.1238;          523   
     137;   135.9991;          495   
     138;   136.8744;          498   
     139;   137.7496;          510   
     140;   138.6249;          488   
     141;   139.5002;          491   
     142;   140.3755;          425   
     143;   141.2507;          472   
     144;   142.1260;          480   
     145;   143.0013;          462   
     146;   143.8766;          456   
     147;   144.7518;          508   
     148;   145.6271;          463   
     149;   146.5024;          476   
     150;   147.3777;          449   
     151;   148.2529;          478   
     152;   149.1282;          505   
     153;   150.0035;          501   
     154;   150.8788;          461   
     155;   151.7540;          504   
     156;   152.6293;          470   
     157;   153.5046;          488   
     158;   154.3799;          486   
     159;   155.2551;          451   
     160;   156.1304;          506   
     161;   157.0057;          475   
     162;   157.8810;          453   
     163;   158.7562;          456   
     164;   159.6315;          492   
     165;   160.5068;          467   
     166;   161.3821;          442   
     167;   162.2573;          436   
     168;   163.1326;          431   
     169;   164.0079;          449   
     170;   164.8832;          438   
     171;   165.7584;          442   
     172;   166.6337;          468   
     173;   167.5090;          400   
     174;   168.3843;          423   
     175;   169.2595;          411   
     176;   170.1348;          484   
     177;   171.0101;          386   
     178;   171.8854;          467   
     179;   172.7606;          427   
     180;   173.6359;          408   
     181;   174.5112;          410   
     182;   175.3865;          442   
     183;   176.2617;          421   
     184;   177.1370;          403   
     185;   178.0123;          376   
     186;   178.8876;          405   
     187;   179.7628;          389   
     188;   180.6381;          399   
     189;   181.5134;          409   
     190;   182.3887;          394   
     191;   183.2639;          400   
     192;   184.1392;          401   
     193;   185.0145;          384   
     194;   185.8898;          423   
     195;   186.7650;          392   
     196;   187.6403;          351   
     197;   188.5156;          397   
     198;   189.3909;          467   
     199;   190.2661;          409   
     200;   191.1414;          392   
     201;   192.0167;          391   
     202;   192.8920;          389   
     203;   193.7672;          397   
     204;   194.6425;          396   
     205;   195.5178;          386   
     206;   196.3931;          372   
     207;   197.2683;          372   
     208;   198.1436;          379   
     209;   199.0189;          355   
     210;   199.8942;          356   
     211;   200.7694;          346   
     212;   201.6447;          364   
     213;   202.5200;          334   
     214;   203.3953;          370   
     215;   204.2705;          364   
     216;   205.1458;          341   
     217;   206.0211;          359   
     218;   206.8964;          337   
     219;   207.7716;          344   
     220;   208.6469;          321   
     221;   209.5222;          348   
     222;   210.3975;          331   
     223;   211.2727;          340   
     224;   212.1480;          340   
     225;   213.0233;          340   
     226;   213.8986;          321   
     227;   214.7738;          322   
     228;   215.6491;          320   
     229;   216.5244;          317   
     230;   217.3997;          339   
     231;   218.2749;          281   
     232;   219.1502;          336   
     233;   220.0255;          299   
     234;   220.9008;          287   
     235;   221.7760;          350   
     236;   222.6513;          278   
     237;   223.5266;          298   
     238;   224.4019;          332   
     239;   225.2771;          305   
     240;   226.1524;          308   
     241;   227.0277;          309   
     242;   227.9030;          276   
     243;   228.7782;          291   
     244;   229.6535;          265   
     245;   230.5288;          279   
     246;   231.4041;          287   
     247;   232.2793;          267   
     248;   233.1546;          304   
     249;   234.0299;          282   
     250;   234.9052;          298   
     251;   235.7804;          258   
     252;   236.6557;          261   
     253;   237.5310;          281   
     254;   238.4063;          287   
     255;   239.2815;          265   
     256;   240.1568;          269   
     257;   241.0321;          325   
     258;   241.9074;          368   
     259;   242.7826;          417   
     260;   243.6579;          348   
     261;   244.5332;          270   
     262;   245.4085;          288   
     263;   246.2837;          297   
     264;   247.1590;          408   
     265;   248.0343;         1248   
     266;   248.9096;         1467   
     267;   249.7848;          584   
     268;   250.6601;          250   
     269;   251.5354;          242   
     270;   252.4107;          245   
     271;   253.2859;          249   
     272;   254.1612;          250   
     273;   255.0365;          261   
     274;   255.9118;          269   
     275;   256.7870;          217   
     276;   257.6623;          223   
     277;   258.5376;          218   
     278;   259.4129;          227   
     279;   260.2881;          231   
     280;   261.1634;          228   
     281;   262.0387;          226   
     282;   262.9140;          221   
     283;   263.7892;          206   
     284;   264.6645;          216   
     285;   265.5398;          204   
     286;   266.4151;          193   
     287;   267.2903;          204   
     288;   268.1656;          182   
     289;   269.0409;          206   
     290;   269.9162;          207   
     291;   270.7914;          179   
     292;   271.6667;          209   
     293;   272.5420;          191   
     294;   273.4173;          220   
     295;   274.2925;          230   
     296;   275.1678;          219   
     297;   276.0431;          194   
     298;   276.9184;          204   
     299;   277.7936;          194   
     300;   278.6689;          193   
     301;   279.5442;          211   
     302;   280.4195;          211   
     303;   281.2947;          206   
     304;   282.1700;          182   
     305;   283.0453;          173   
     306;   283.9206;          168   
     307;   284.7958;          164   
     308;   285.6711;          170   
     309;   286.5464;          195   
     310;   287.4217;          194   
     311;   288.2969;          169   
     312;   289.1722;          174   
     313;   290.0475;          178   
     314;   290.9228;          165   
     315;   291.7980;          170   
     316;   292.6733;          193   
     317;   293.5486;          169   
     318;   294.4239;          181   
     319;   295.2991;          175   
     320;   296.1744;          189   
     321;   297.0497;          184   
     322;   297.9250;          189   
     323;   298.8002;          217   
     324;   299.6755;          272   
     325;   300.5508;          233   
     326;   301.4261;          178   
     327;   302.3013;          155   
     328;   303.1766;          177   
     329;   304.0519;          164   
     330;   304.9272;          172   
     331;   305.8024;          162   
     332;   306.6777;          142   
     333;   307.5530;          169   
     334;   308.4283;          182   
     335;   309.3035;          180   
     336;   310.1788;          150   
     337;   311.0541;          146   
     338;   311.9294;          137   
     339;   312.8046;          121   
     340;   313.6799;          143   
     341;   314.5552;          158   
     342;   315.4305;          160   
     343;   316.3057;          151   
     344;   317.1810;          153   
     345;   318.0563;          144   
     346;   318.9316;          151   
     347;   319.8068;          158   
     348;   320.6821;          159   
     349;   321.5574;          139   
     350;   322.4327;          156   
     351;   323.3079;          174   
     352;   324.1832;          131   
     353;   325.0585;          147   
     354;   325.9338;          127   
     355;   326.8090;          158   
     356;   327.6843;          138   
     357;   328.5596;          135   
     358;   329.4349;          138   
     359;   330.3101;          141   
     360;   331.1854;          151   
     361;   332.0607;          116   
     362;   332.9360;          155   
     363;   333.8112;          145   
     364;   334.6865;          159   
     365;   335.5618;          136   
     366;   336.4371;          129   
     367;   337.3123;          151   
     368;   338.1876;          147   
     369;   339.0629;          136   
     370;   339.9382;          158   
     371;   340.8134;          141   
     372;   341.6887;          156   
     373;   342.5640;          168   
     374;   343.4393;          150   
     375;   344.3145;          150   
     376;   345.1898;          131   
     377;   346.0651;          140   
     378;   346.9404;          218   
     379;   347.8156;         1337   
     380;   348.6909;         3420   
     381;   349.5662;         2493   
     382;   350.4415;          533   
     383;   351.3167;          156   
     384;   352.1920;          126   
     385;   353.0673;          102   
     386;   353.9426;          108   
     387;   354.8178;          116   
     388;   355.6931;          151   
     389;   356.5684;          207   
     390;   357.4437;          165   
     391;   358.3189;          115   
     392;   359.1942;          106   
     393;   360.0695;          108   
     394;   360.9448;          116   
     395;   361.8200;          114   
     396;   362.6953;          116   
     397;   363.5706;          103   
     398;   364.4459;          109   
     399;   365.3211;          126   
     400;   366.1964;          107   
     401;   367.0717;          108   
     402;   367.9470;          102   
     403;   368.8222;          111   
     404;   369.6975;          112   
     405;   370.5728;          103   
     406;   371.4481;          144   
     407;   372.3233;          211   
     408;   373.1986;          152   
     409;   374.0739;          143   
     410;   374.9492;           94   
     411;   375.8244;          104   
     412;   376.6997;          108   
     413;   377.5750;          109   
     414;   378.4503;          108   
     415;   379.3255;          101   
     416;   380.2008;          108   
     417;   381.0761;           97   
     418;   381.9514;           94   
     419;   382.8266;          116   
     420;   383.7019;          117   
     421;   384.5772;          109   
     422;   385.4525;           81   
     423;   386.3277;           92   
     424;   387.2030;           98   
     425;   388.0783;           86   
     426;   388.9536;          101   
     427;   389.8288;          123   
     428;   390.7041;           92   
     429;   391.5794;           97   
     430;   392.4547;           96   
     431;   393.3299;           88   
     432;   394.2052;           96   
     433;   395.0805;           98   
     434;   395.9558;          110   
     435;   396.8310;           96   
     436;   397.7063;          116   
     437;   398.5816;           99   
     438;   399.4569;           96   
     439;   400.3321;           99   
     440;   401.2074;           99   
     441;   402.0827;           87   
     442;   402.9580;          104   
     443;   403.8332;           93   
     444;   404.7085;           83   
     445;   405.5838;           98   
     446;   406.4591;          107   
     447;   407.3343;           88   
     448;   408.2096;           81   
     449;   409.0849;           93   
     450;   409.9602;          102   
     451;   410.8354;           95   
     452;   411.7107;          109   
     453;   412.5860;           89   
     454;   413.4613;          100   
     455;   414.3365;          116   
     456;   415.2118;          233   
     457;   416.0871;          324   
     458;   416.9624;          259   
     459;   417.8376;          109   
     460;   418.7129;          105   
     461;   419.5882;           82   
     462;   420.4635;           90   
     463;   421.3387;           91   
     464;   422.2140;          103   
     465;   423.0893;           81   
     466;   423.9646;           79   
     467;   424.8398;          105   
     468;   425.7151;           83   
     469;   426.5904;           83   
     470;   427.4657;           89   
     471;   428.3409;           99   
     472;   429.2162;           73   
     473;   430.0915;           77   
     474;   430.9668;          105   
     475;   431.8420;          101   
     476;   432.7173;           86   
     477;   433.5926;           85   
     478;   434.4679;           84   
     479;   435.3431;           89   
     480;   436.2184;           97   
     481;   437.0937;           84   
     482;   437.9690;           83   
     483;   438.8442;           97   
     484;   439.7195;           71   
     485;   440.5948;           94   
     486;   441.4701;           85   
     487;   442.3453;           76   
     488;   443.2206;           96   
     489;   444.0959;          110   
     490;   444.9712;           86   
     491;   445.8464;           93   
     492;   446.7217;           76   
     493;   447.5970;          122   
     494;   448.4723;          236   
     495;   449.3475;          375   
     496;   450.2228;          221   
     497;   451.0981;          106   
     498;   451.9734;           94   
     499;   452.8486;           87   
     500;   453.7239;           81   
     501;   454.5992;           85   
     502;   455.4745;           97   
     503;   456.3497;           86   
     504;   457.2250;           87   
     505;   458.1003;           72   
     506;   458.9756;           95   
     507;   459.8508;           71   
     508;   460.7261;           83   
     509;   461.6014;           83   
     510;   462.4767;           78   
     511;   463.3519;           86   
     512;   464.2272;          103   
