Kanal;   Energie(keV); Impulse
       1;    16.9617;          526   
       2;    17.8370;          521   
       3;    18.7122;          512   
       4;    19.5875;          504   
       5;    20.4628;          474   
       6;    21.3381;          444   
       7;    22.2133;          466   
       8;    23.0886;          476   
       9;    23.9639;          471   
      10;    24.8392;          455   
      11;    25.7144;          433   
      12;    26.5897;          455   
      13;    27.4650;          432   
      14;    28.3403;          428   
      15;    29.2155;          422   
      16;    30.0908;          371   
      17;    30.9661;          414   
      18;    31.8414;          372   
      19;    32.7166;          405   
      20;    33.5919;          360   
      21;    34.4672;          401   
      22;    35.3425;          402   
      23;    36.2177;          391   
      24;    37.0930;          375   
      25;    37.9683;          389   
      26;    38.8436;          355   
      27;    39.7188;          347   
      28;    40.5941;          372   
      29;    41.4694;          348   
      30;    42.3447;          388   
      31;    43.2199;          317   
      32;    44.0952;          400   
      33;    44.9705;          386   
      34;    45.8458;          370   
      35;    46.7210;          313   
      36;    47.5963;          351   
      37;    48.4716;          367   
      38;    49.3469;          374   
      39;    50.2221;          350   
      40;    51.0974;          351   
      41;    51.9727;          358   
      42;    52.8480;          361   
      43;    53.7232;          355   
      44;    54.5985;          364   
      45;    55.4738;          372   
      46;    56.3491;          350   
      47;    57.2243;          351   
      48;    58.0996;          348   
      49;    58.9749;          316   
      50;    59.8502;          347   
      51;    60.7254;          397   
      52;    61.6007;          395   
      53;    62.4760;          360   
      54;    63.3513;          361   
      55;    64.2265;          362   
      56;    65.1018;          371   
      57;    65.9771;          367   
      58;    66.8524;          369   
      59;    67.7276;          404   
      60;    68.6029;          371   
      61;    69.4782;          365   
      62;    70.3535;          406   
      63;    71.2287;          388   
      64;    72.1040;          456   
      65;    72.9793;          402   
      66;    73.8546;          439   
      67;    74.7298;          482   
      68;    75.6051;          609   
      69;    76.4804;          671   
      70;    77.3557;          709   
      71;    78.2309;          894   
      72;    79.1062;          610   
      73;    79.9815;          468   
      74;    80.8568;          395   
      75;    81.7320;          404   
      76;    82.6073;          432   
      77;    83.4826;          432   
      78;    84.3579;          446   
      79;    85.2331;          438   
      80;    86.1084;          456   
      81;    86.9837;          558   
      82;    87.8590;          695   
      83;    88.7342;          644   
      84;    89.6095;          484   
      85;    90.4848;          537   
      86;    91.3601;          536   
      87;    92.2353;          466   
      88;    93.1106;          442   
      89;    93.9859;          439   
      90;    94.8612;          415   
      91;    95.7364;          473   
      92;    96.6117;          466   
      93;    97.4870;          459   
      94;    98.3623;          457   
      95;    99.2375;          471   
      96;   100.1128;          450   
      97;   100.9881;          470   
      98;   101.8634;          449   
      99;   102.7386;          454   
     100;   103.6139;          500   
     101;   104.4892;          468   
     102;   105.3645;          462   
     103;   106.2397;          494   
     104;   107.1150;          506   
     105;   107.9903;          464   
     106;   108.8656;          463   
     107;   109.7408;          479   
     108;   110.6161;          458   
     109;   111.4914;          462   
     110;   112.3667;          460   
     111;   113.2419;          470   
     112;   114.1172;          451   
     113;   114.9925;          525   
     114;   115.8678;          499   
     115;   116.7430;          486   
     116;   117.6183;          484   
     117;   118.4936;          504   
     118;   119.3689;          466   
     119;   120.2441;          469   
     120;   121.1194;          477   
     121;   121.9947;          491   
     122;   122.8700;          511   
     123;   123.7452;          476   
     124;   124.6205;          477   
     125;   125.4958;          495   
     126;   126.3711;          504   
     127;   127.2463;          474   
     128;   128.1216;          518   
     129;   128.9969;          518   
     130;   129.8722;          521   
     131;   130.7474;          476   
     132;   131.6227;          546   
     133;   132.4980;          460   
     134;   133.3733;          487   
     135;   134.2485;          484   
     136;   135.1238;          476   
     137;   135.9991;          534   
     138;   136.8744;          511   
     139;   137.7496;          483   
     140;   138.6249;          506   
     141;   139.5002;          469   
     142;   140.3755;          516   
     143;   141.2507;          487   
     144;   142.1260;          522   
     145;   143.0013;          474   
     146;   143.8766;          520   
     147;   144.7518;          483   
     148;   145.6271;          502   
     149;   146.5024;          459   
     150;   147.3777;          442   
     151;   148.2529;          472   
     152;   149.1282;          483   
     153;   150.0035;          501   
     154;   150.8788;          507   
     155;   151.7540;          464   
     156;   152.6293;          489   
     157;   153.5046;          484   
     158;   154.3799;          464   
     159;   155.2551;          482   
     160;   156.1304;          491   
     161;   157.0057;          477   
     162;   157.8810;          473   
     163;   158.7562;          488   
     164;   159.6315;          472   
     165;   160.5068;          503   
     166;   161.3821;          530   
     167;   162.2573;          507   
     168;   163.1326;          470   
     169;   164.0079;          505   
     170;   164.8832;          459   
     171;   165.7584;          506   
     172;   166.6337;          486   
     173;   167.5090;          502   
     174;   168.3843;          518   
     175;   169.2595;          498   
     176;   170.1348;          532   
     177;   171.0101;          541   
     178;   171.8854;          521   
     179;   172.7606;          491   
     180;   173.6359;          537   
     181;   174.5112;          584   
     182;   175.3865;          596   
     183;   176.2617;          678   
     184;   177.1370;          665   
     185;   178.0123;          658   
     186;   178.8876;          617   
     187;   179.7628;          606   
     188;   180.6381;          605   
     189;   181.5134;          604   
     190;   182.3887;          573   
     191;   183.2639;          599   
     192;   184.1392;          617   
     193;   185.0145;          540   
     194;   185.8898;          562   
     195;   186.7650;          571   
     196;   187.6403;          540   
     197;   188.5156;          522   
     198;   189.3909;          537   
     199;   190.2661;          562   
     200;   191.1414;          553   
     201;   192.0167;          524   
     202;   192.8920;          534   
     203;   193.7672;          525   
     204;   194.6425;          490   
     205;   195.5178;          549   
     206;   196.3931;          506   
     207;   197.2683;          525   
     208;   198.1436;          511   
     209;   199.0189;          530   
     210;   199.8942;          543   
     211;   200.7694;          501   
     212;   201.6447;          497   
     213;   202.5200;          499   
     214;   203.3953;          489   
     215;   204.2705;          444   
     216;   205.1458;          449   
     217;   206.0211;          489   
     218;   206.8964;          454   
     219;   207.7716;          475   
     220;   208.6469;          486   
     221;   209.5222;          440   
     222;   210.3975;          525   
     223;   211.2727;          475   
     224;   212.1480;          466   
     225;   213.0233;          456   
     226;   213.8986;          479   
     227;   214.7738;          498   
     228;   215.6491;          482   
     229;   216.5244;          503   
     230;   217.3997;          484   
     231;   218.2749;          478   
     232;   219.1502;          533   
     233;   220.0255;          477   
     234;   220.9008;          500   
     235;   221.7760;          480   
     236;   222.6513;          460   
     237;   223.5266;          514   
     238;   224.4019;          465   
     239;   225.2771;          416   
     240;   226.1524;          479   
     241;   227.0277;          480   
     242;   227.9030;          474   
     243;   228.7782;          455   
     244;   229.6535;          439   
     245;   230.5288;          401   
     246;   231.4041;          436   
     247;   232.2793;          455   
     248;   233.1546;          420   
     249;   234.0299;          424   
     250;   234.9052;          430   
     251;   235.7804;          427   
     252;   236.6557;          413   
     253;   237.5310;          404   
     254;   238.4063;          446   
     255;   239.2815;          413   
     256;   240.1568;          393   
     257;   241.0321;          389   
     258;   241.9074;          410   
     259;   242.7826;          451   
     260;   243.6579;          423   
     261;   244.5332;          422   
     262;   245.4085;          391   
     263;   246.2837;          417   
     264;   247.1590;          380   
     265;   248.0343;          392   
     266;   248.9096;          391   
     267;   249.7848;          392   
     268;   250.6601;          380   
     269;   251.5354;          356   
     270;   252.4107;          388   
     271;   253.2859;          367   
     272;   254.1612;          343   
     273;   255.0365;          334   
     274;   255.9118;          336   
     275;   256.7870;          326   
     276;   257.6623;          358   
     277;   258.5376;          388   
     278;   259.4129;          334   
     279;   260.2881;          323   
     280;   261.1634;          339   
     281;   262.0387;          364   
     282;   262.9140;          338   
     283;   263.7892;          345   
     284;   264.6645;          325   
     285;   265.5398;          307   
     286;   266.4151;          350   
     287;   267.2903;          326   
     288;   268.1656;          346   
     289;   269.0409;          340   
     290;   269.9162;          331   
     291;   270.7914;          344   
     292;   271.6667;          351   
     293;   272.5420;          308   
     294;   273.4173;          306   
     295;   274.2925;          359   
     296;   275.1678;          309   
     297;   276.0431;          334   
     298;   276.9184;          330   
     299;   277.7936;          318   
     300;   278.6689;          345   
     301;   279.5442;          318   
     302;   280.4195;          320   
     303;   281.2947;          335   
     304;   282.1700;          347   
     305;   283.0453;          319   
     306;   283.9206;          329   
     307;   284.7958;          344   
     308;   285.6711;          362   
     309;   286.5464;          342   
     310;   287.4217;          325   
     311;   288.2969;          340   
     312;   289.1722;          313   
     313;   290.0475;          323   
     314;   290.9228;          348   
     315;   291.7980;          339   
     316;   292.6733;          301   
     317;   293.5486;          347   
     318;   294.4239;          299   
     319;   295.2991;          333   
     320;   296.1744;          310   
     321;   297.0497;          360   
     322;   297.9250;          338   
     323;   298.8002;          377   
     324;   299.6755;          325   
     325;   300.5508;          369   
     326;   301.4261;          338   
     327;   302.3013;          331   
     328;   303.1766;          325   
     329;   304.0519;          345   
     330;   304.9272;          322   
     331;   305.8024;          357   
     332;   306.6777;          336   
     333;   307.5530;          360   
     334;   308.4283;          322   
     335;   309.3035;          347   
     336;   310.1788;          353   
     337;   311.0541;          319   
     338;   311.9294;          314   
     339;   312.8046;          349   
     340;   313.6799;          355   
     341;   314.5552;          297   
     342;   315.4305;          310   
     343;   316.3057;          356   
     344;   317.1810;          342   
     345;   318.0563;          336   
     346;   318.9316;          366   
     347;   319.8068;          327   
     348;   320.6821;          364   
     349;   321.5574;          366   
     350;   322.4327;          357   
     351;   323.3079;          361   
     352;   324.1832;          310   
     353;   325.0585;          321   
     354;   325.9338;          309   
     355;   326.8090;          362   
     356;   327.6843;          336   
     357;   328.5596;          354   
     358;   329.4349;          323   
     359;   330.3101;          369   
     360;   331.1854;          360   
     361;   332.0607;          352   
     362;   332.9360;          316   
     363;   333.8112;          397   
     364;   334.6865;          361   
     365;   335.5618;          358   
     366;   336.4371;          351   
     367;   337.3123;          345   
     368;   338.1876;          355   
     369;   339.0629;          331   
     370;   339.9382;          333   
     371;   340.8134;          343   
     372;   341.6887;          334   
     373;   342.5640;          308   
     374;   343.4393;          329   
     375;   344.3145;          358   
     376;   345.1898;          367   
     377;   346.0651;          311   
     378;   346.9404;          300   
     379;   347.8156;          304   
     380;   348.6909;          257   
     381;   349.5662;          234   
     382;   350.4415;          277   
     383;   351.3167;          236   
     384;   352.1920;          240   
     385;   353.0673;          231   
     386;   353.9426;          261   
     387;   354.8178;          219   
     388;   355.6931;          254   
     389;   356.5684;          233   
     390;   357.4437;          209   
     391;   358.3189;          276   
     392;   359.1942;          221   
     393;   360.0695;          205   
     394;   360.9448;          199   
     395;   361.8200;          204   
     396;   362.6953;          193   
     397;   363.5706;          202   
     398;   364.4459;          200   
     399;   365.3211;          195   
     400;   366.1964;          218   
     401;   367.0717;          214   
     402;   367.9470;          214   
     403;   368.8222;          177   
     404;   369.6975;          185   
     405;   370.5728;          190   
     406;   371.4481;          188   
     407;   372.3233;          155   
     408;   373.1986;          150   
     409;   374.0739;          162   
     410;   374.9492;          176   
     411;   375.8244;          172   
     412;   376.6997;          173   
     413;   377.5750;          151   
     414;   378.4503;          162   
     415;   379.3255;          155   
     416;   380.2008;          180   
     417;   381.0761;          153   
     418;   381.9514;          149   
     419;   382.8266;          135   
     420;   383.7019;          139   
     421;   384.5772;          147   
     422;   385.4525;          137   
     423;   386.3277;          155   
     424;   387.2030;          179   
     425;   388.0783;          162   
     426;   388.9536;          151   
     427;   389.8288;          129   
     428;   390.7041;          128   
     429;   391.5794;          145   
     430;   392.4547;          147   
     431;   393.3299;          135   
     432;   394.2052;          133   
     433;   395.0805;          141   
     434;   395.9558;          122   
     435;   396.8310;          149   
     436;   397.7063;          119   
     437;   398.5816;          128   
     438;   399.4569;          113   
     439;   400.3321;          145   
     440;   401.2074;          130   
     441;   402.0827;          139   
     442;   402.9580;          100   
     443;   403.8332;          141   
     444;   404.7085;          118   
     445;   405.5838;          125   
     446;   406.4591;          106   
     447;   407.3343;          118   
     448;   408.2096;          114   
     449;   409.0849;          124   
     450;   409.9602;           96   
     451;   410.8354;          113   
     452;   411.7107;          102   
     453;   412.5860;          106   
     454;   413.4613;          113   
     455;   414.3365;          105   
     456;   415.2118;          114   
     457;   416.0871;          112   
     458;   416.9624;          107   
     459;   417.8376;          112   
     460;   418.7129;          104   
     461;   419.5882;          103   
     462;   420.4635;           93   
     463;   421.3387;          118   
     464;   422.2140;          104   
     465;   423.0893;          114   
     466;   423.9646;          104   
     467;   424.8398;           90   
     468;   425.7151;          101   
     469;   426.5904;          115   
     470;   427.4657;          108   
     471;   428.3409;           92   
     472;   429.2162;          101   
     473;   430.0915;           90   
     474;   430.9668;          101   
     475;   431.8420;           99   
     476;   432.7173;           87   
     477;   433.5926;           95   
     478;   434.4679;           99   
     479;   435.3431;          103   
     480;   436.2184;           99   
     481;   437.0937;          106   
     482;   437.9690;           90   
     483;   438.8442;           97   
     484;   439.7195;           88   
     485;   440.5948;           90   
     486;   441.4701;           95   
     487;   442.3453;          102   
     488;   443.2206;          122   
     489;   444.0959;          110   
     490;   444.9712;           93   
     491;   445.8464;          105   
     492;   446.7217;          109   
     493;   447.5970;           99   
     494;   448.4723;           68   
     495;   449.3475;          101   
     496;   450.2228;           81   
     497;   451.0981;           95   
     498;   451.9734;           92   
     499;   452.8486;           92   
     500;   453.7239;           96   
     501;   454.5992;           98   
     502;   455.4745;           83   
     503;   456.3497;           79   
     504;   457.2250;           87   
     505;   458.1003;           88   
     506;   458.9756;           93   
     507;   459.8508;          102   
     508;   460.7261;           91   
     509;   461.6014;           84   
     510;   462.4767;           91   
     511;   463.3519;           89   
     512;   464.2272;           97   
