Kanal;   Energie(keV); Impulse
       1;    16.9617;           84   
       2;    17.8370;           87   
       3;    18.7122;           81   
       4;    19.5875;           96   
       5;    20.4628;           90   
       6;    21.3381;           86   
       7;    22.2133;           72   
       8;    23.0886;           70   
       9;    23.9639;           66   
      10;    24.8392;           76   
      11;    25.7144;           65   
      12;    26.5897;           65   
      13;    27.4650;           71   
      14;    28.3403;           45   
      15;    29.2155;           59   
      16;    30.0908;           59   
      17;    30.9661;           51   
      18;    31.8414;           66   
      19;    32.7166;           51   
      20;    33.5919;           67   
      21;    34.4672;           71   
      22;    35.3425;           61   
      23;    36.2177;           73   
      24;    37.0930;           69   
      25;    37.9683;           58   
      26;    38.8436;           55   
      27;    39.7188;           54   
      28;    40.5941;           56   
      29;    41.4694;           57   
      30;    42.3447;           51   
      31;    43.2199;           42   
      32;    44.0952;           64   
      33;    44.9705;           36   
      34;    45.8458;           42   
      35;    46.7210;           42   
      36;    47.5963;           45   
      37;    48.4716;           39   
      38;    49.3469;           35   
      39;    50.2221;           34   
      40;    51.0974;           34   
      41;    51.9727;           32   
      42;    52.8480;           31   
      43;    53.7232;           39   
      44;    54.5985;           37   
      45;    55.4738;           40   
      46;    56.3491;           38   
      47;    57.2243;           38   
      48;    58.0996;           33   
      49;    58.9749;           32   
      50;    59.8502;           45   
      51;    60.7254;           45   
      52;    61.6007;           31   
      53;    62.4760;           50   
      54;    63.3513;           55   
      55;    64.2265;           37   
      56;    65.1018;           55   
      57;    65.9771;           47   
      58;    66.8524;           41   
      59;    67.7276;           59   
      60;    68.6029;           54   
      61;    69.4782;           55   
      62;    70.3535;           56   
      63;    71.2287;           51   
      64;    72.1040;           49   
      65;    72.9793;           68   
      66;    73.8546;          115   
      67;    74.7298;          189   
      68;    75.6051;          181   
      69;    76.4804;          224   
      70;    77.3557;          325   
      71;    78.2309;          110   
      72;    79.1062;           75   
      73;    79.9815;           58   
      74;    80.8568;           69   
      75;    81.7320;           70   
      76;    82.6073;           79   
      77;    83.4826;           62   
      78;    84.3579;           91   
      79;    85.2331;          103   
      80;    86.1084;          190   
      81;    86.9837;          218   
      82;    87.8590;          171   
      83;    88.7342;          142   
      84;    89.6095;          150   
      85;    90.4848;          134   
      86;    91.3601;          129   
      87;    92.2353;          128   
      88;    93.1106;          115   
      89;    93.9859;          112   
      90;    94.8612;           91   
      91;    95.7364;          118   
      92;    96.6117;          113   
      93;    97.4870;          105   
      94;    98.3623;          125   
      95;    99.2375;          104   
      96;   100.1128;          106   
      97;   100.9881;           97   
      98;   101.8634;          123   
      99;   102.7386;          121   
     100;   103.6139;           98   
     101;   104.4892;          110   
     102;   105.3645;          110   
     103;   106.2397;          104   
     104;   107.1150;           94   
     105;   107.9903;          108   
     106;   108.8656;          111   
     107;   109.7408;          114   
     108;   110.6161;          108   
     109;   111.4914;          117   
     110;   112.3667;           94   
     111;   113.2419;          134   
     112;   114.1172;          121   
     113;   114.9925;          139   
     114;   115.8678;          136   
     115;   116.7430;          132   
     116;   117.6183;          118   
     117;   118.4936;          128   
     118;   119.3689;          143   
     119;   120.2441;          120   
     120;   121.1194;          130   
     121;   121.9947;          163   
     122;   122.8700;         1038   
     123;   123.7452;         3977   
     124;   124.6205;         3282   
     125;   125.4958;          601   
     126;   126.3711;           72   
     127;   127.2463;           53   
     128;   128.1216;           59   
     129;   128.9969;           50   
     130;   129.8722;           74   
     131;   130.7474;           65   
     132;   131.6227;           48   
     133;   132.4980;           43   
     134;   133.3733;           63   
     135;   134.2485;           55   
     136;   135.1238;           56   
     137;   135.9991;           45   
     138;   136.8744;           97   
     139;   137.7496;          382   
     140;   138.6249;          582   
     141;   139.5002;          228   
     142;   140.3755;           73   
     143;   141.2507;           52   
     144;   142.1260;           40   
     145;   143.0013;           43   
     146;   143.8766;           49   
     147;   144.7518;           47   
     148;   145.6271;           50   
     149;   146.5024;           40   
     150;   147.3777;           50   
     151;   148.2529;           37   
     152;   149.1282;           42   
     153;   150.0035;           28   
     154;   150.8788;           38   
     155;   151.7540;           30   
     156;   152.6293;           32   
     157;   153.5046;           37   
     158;   154.3799;           43   
     159;   155.2551;           44   
     160;   156.1304;           44   
     161;   157.0057;           42   
     162;   157.8810;           30   
     163;   158.7562;           39   
     164;   159.6315;           32   
     165;   160.5068;           39   
     166;   161.3821;           46   
     167;   162.2573;           30   
     168;   163.1326;           42   
     169;   164.0079;           34   
     170;   164.8832;           52   
     171;   165.7584;           35   
     172;   166.6337;           34   
     173;   167.5090;           33   
     174;   168.3843;           34   
     175;   169.2595;           31   
     176;   170.1348;           45   
     177;   171.0101;           24   
     178;   171.8854;           31   
     179;   172.7606;           26   
     180;   173.6359;           39   
     181;   174.5112;           41   
     182;   175.3865;           40   
     183;   176.2617;           30   
     184;   177.1370;           38   
     185;   178.0123;           39   
     186;   178.8876;           41   
     187;   179.7628;           34   
     188;   180.6381;           33   
     189;   181.5134;           29   
     190;   182.3887;           33   
     191;   183.2639;           32   
     192;   184.1392;           29   
     193;   185.0145;           30   
     194;   185.8898;           37   
     195;   186.7650;           29   
     196;   187.6403;           23   
     197;   188.5156;           34   
     198;   189.3909;           38   
     199;   190.2661;           43   
     200;   191.1414;           31   
     201;   192.0167;           40   
     202;   192.8920;           31   
     203;   193.7672;           37   
     204;   194.6425;           26   
     205;   195.5178;           24   
     206;   196.3931;           24   
     207;   197.2683;           31   
     208;   198.1436;           30   
     209;   199.0189;           24   
     210;   199.8942;           27   
     211;   200.7694;           35   
     212;   201.6447;           28   
     213;   202.5200;           23   
     214;   203.3953;           29   
     215;   204.2705;           30   
     216;   205.1458;           19   
     217;   206.0211;           22   
     218;   206.8964;           27   
     219;   207.7716;           25   
     220;   208.6469;           25   
     221;   209.5222;           23   
     222;   210.3975;           21   
     223;   211.2727;           36   
     224;   212.1480;           33   
     225;   213.0233;           20   
     226;   213.8986;           18   
     227;   214.7738;           32   
     228;   215.6491;           27   
     229;   216.5244;           24   
     230;   217.3997;           31   
     231;   218.2749;           16   
     232;   219.1502;           15   
     233;   220.0255;           25   
     234;   220.9008;           30   
     235;   221.7760;           22   
     236;   222.6513;           26   
     237;   223.5266;           22   
     238;   224.4019;           22   
     239;   225.2771;           23   
     240;   226.1524;           18   
     241;   227.0277;           17   
     242;   227.9030;           18   
     243;   228.7782;           25   
     244;   229.6535;           28   
     245;   230.5288;           17   
     246;   231.4041;           22   
     247;   232.2793;           25   
     248;   233.1546;           23   
     249;   234.0299;           23   
     250;   234.9052;           21   
     251;   235.7804;           16   
     252;   236.6557;           21   
     253;   237.5310;           19   
     254;   238.4063;           25   
     255;   239.2815;           30   
     256;   240.1568;           45   
     257;   241.0321;           46   
     258;   241.9074;           33   
     259;   242.7826;           32   
     260;   243.6579;           21   
     261;   244.5332;           30   
     262;   245.4085;           26   
     263;   246.2837;           15   
     264;   247.1590;           21   
     265;   248.0343;           18   
     266;   248.9096;            9   
     267;   249.7848;           18   
     268;   250.6601;           25   
     269;   251.5354;           16   
     270;   252.4107;           25   
     271;   253.2859;           12   
     272;   254.1612;           12   
     273;   255.0365;            9   
     274;   255.9118;           20   
     275;   256.7870;           13   
     276;   257.6623;           21   
     277;   258.5376;           13   
     278;   259.4129;           21   
     279;   260.2881;           10   
     280;   261.1634;           21   
     281;   262.0387;           19   
     282;   262.9140;           17   
     283;   263.7892;           14   
     284;   264.6645;           14   
     285;   265.5398;           19   
     286;   266.4151;           12   
     287;   267.2903;           27   
     288;   268.1656;           16   
     289;   269.0409;           23   
     290;   269.9162;           14   
     291;   270.7914;           14   
     292;   271.6667;           16   
     293;   272.5420;           23   
     294;   273.4173;           18   
     295;   274.2925;           15   
     296;   275.1678;           17   
     297;   276.0431;           16   
     298;   276.9184;            9   
     299;   277.7936;           16   
     300;   278.6689;           15   
     301;   279.5442;           19   
     302;   280.4195;           18   
     303;   281.2947;           11   
     304;   282.1700;           19   
     305;   283.0453;            6   
     306;   283.9206;           12   
     307;   284.7958;           15   
     308;   285.6711;           13   
     309;   286.5464;           12   
     310;   287.4217;           14   
     311;   288.2969;           23   
     312;   289.1722;           16   
     313;   290.0475;           11   
     314;   290.9228;           12   
     315;   291.7980;           12   
     316;   292.6733;           18   
     317;   293.5486;           16   
     318;   294.4239;           13   
     319;   295.2991;           17   
     320;   296.1744;           17   
     321;   297.0497;           20   
     322;   297.9250;           14   
     323;   298.8002;           12   
     324;   299.6755;           19   
     325;   300.5508;           27   
     326;   301.4261;           17   
     327;   302.3013;            6   
     328;   303.1766;           11   
     329;   304.0519;           13   
     330;   304.9272;           10   
     331;   305.8024;           13   
     332;   306.6777;           14   
     333;   307.5530;           15   
     334;   308.4283;           11   
     335;   309.3035;           10   
     336;   310.1788;           15   
     337;   311.0541;           11   
     338;   311.9294;           10   
     339;   312.8046;           16   
     340;   313.6799;           13   
     341;   314.5552;           11   
     342;   315.4305;           13   
     343;   316.3057;           10   
     344;   317.1810;           10   
     345;   318.0563;           13   
     346;   318.9316;            7   
     347;   319.8068;           12   
     348;   320.6821;           12   
     349;   321.5574;           11   
     350;   322.4327;            7   
     351;   323.3079;           14   
     352;   324.1832;            9   
     353;   325.0585;            7   
     354;   325.9338;           10   
     355;   326.8090;           16   
     356;   327.6843;            3   
     357;   328.5596;            7   
     358;   329.4349;           10   
     359;   330.3101;            6   
     360;   331.1854;            4   
     361;   332.0607;            7   
     362;   332.9360;            7   
     363;   333.8112;           12   
     364;   334.6865;           10   
     365;   335.5618;            6   
     366;   336.4371;           15   
     367;   337.3123;           16   
     368;   338.1876;           10   
     369;   339.0629;           10   
     370;   339.9382;           16   
     371;   340.8134;           13   
     372;   341.6887;            9   
     373;   342.5640;            9   
     374;   343.4393;            7   
     375;   344.3145;            6   
     376;   345.1898;           12   
     377;   346.0651;            6   
     378;   346.9404;           10   
     379;   347.8156;            5   
     380;   348.6909;            9   
     381;   349.5662;            9   
     382;   350.4415;           11   
     383;   351.3167;           15   
     384;   352.1920;           13   
     385;   353.0673;           20   
     386;   353.9426;           23   
     387;   354.8178;           17   
     388;   355.6931;           11   
     389;   356.5684;           12   
     390;   357.4437;           10   
     391;   358.3189;           12   
     392;   359.1942;           11   
     393;   360.0695;           10   
     394;   360.9448;            6   
     395;   361.8200;           12   
     396;   362.6953;            8   
     397;   363.5706;           11   
     398;   364.4459;            4   
     399;   365.3211;            8   
     400;   366.1964;            5   
     401;   367.0717;            7   
     402;   367.9470;           13   
     403;   368.8222;           11   
     404;   369.6975;            8   
     405;   370.5728;           13   
     406;   371.4481;            9   
     407;   372.3233;            5   
     408;   373.1986;            7   
     409;   374.0739;           12   
     410;   374.9492;            7   
     411;   375.8244;           10   
     412;   376.6997;            5   
     413;   377.5750;            7   
     414;   378.4503;            7   
     415;   379.3255;            5   
     416;   380.2008;            7   
     417;   381.0761;            6   
     418;   381.9514;           10   
     419;   382.8266;            9   
     420;   383.7019;            6   
     421;   384.5772;            2   
     422;   385.4525;            7   
     423;   386.3277;            7   
     424;   387.2030;            8   
     425;   388.0783;            7   
     426;   388.9536;            8   
     427;   389.8288;            8   
     428;   390.7041;            8   
     429;   391.5794;            7   
     430;   392.4547;            7   
     431;   393.3299;            9   
     432;   394.2052;            6   
     433;   395.0805;           10   
     434;   395.9558;            7   
     435;   396.8310;            5   
     436;   397.7063;            6   
     437;   398.5816;            9   
     438;   399.4569;            9   
     439;   400.3321;            8   
     440;   401.2074;           12   
     441;   402.0827;            8   
     442;   402.9580;            8   
     443;   403.8332;            8   
     444;   404.7085;            7   
     445;   405.5838;            8   
     446;   406.4591;            9   
     447;   407.3343;            7   
     448;   408.2096;            3   
     449;   409.0849;            3   
     450;   409.9602;            9   
     451;   410.8354;            8   
     452;   411.7107;            4   
     453;   412.5860;           11   
     454;   413.4613;            7   
     455;   414.3365;            7   
     456;   415.2118;            4   
     457;   416.0871;            5   
     458;   416.9624;           13   
     459;   417.8376;            5   
     460;   418.7129;            6   
     461;   419.5882;            8   
     462;   420.4635;            9   
     463;   421.3387;           12   
     464;   422.2140;           10   
     465;   423.0893;           12   
     466;   423.9646;            9   
     467;   424.8398;            3   
     468;   425.7151;           10   
     469;   426.5904;            1   
     470;   427.4657;            6   
     471;   428.3409;            4   
     472;   429.2162;            4   
     473;   430.0915;            9   
     474;   430.9668;           10   
     475;   431.8420;            4   
     476;   432.7173;            6   
     477;   433.5926;            6   
     478;   434.4679;           11   
     479;   435.3431;           10   
     480;   436.2184;            4   
     481;   437.0937;            9   
     482;   437.9690;           11   
     483;   438.8442;            4   
     484;   439.7195;            8   
     485;   440.5948;            7   
     486;   441.4701;            8   
     487;   442.3453;            4   
     488;   443.2206;            7   
     489;   444.0959;            6   
     490;   444.9712;            5   
     491;   445.8464;            6   
     492;   446.7217;            7   
     493;   447.5970;            6   
     494;   448.4723;            7   
     495;   449.3475;            5   
     496;   450.2228;            4   
     497;   451.0981;            4   
     498;   451.9734;            5   
     499;   452.8486;            2   
     500;   453.7239;           10   
     501;   454.5992;            6   
     502;   455.4745;            7   
     503;   456.3497;           10   
     504;   457.2250;            4   
     505;   458.1003;            6   
     506;   458.9756;            7   
     507;   459.8508;            6   
     508;   460.7261;            7   
     509;   461.6014;            5   
     510;   462.4767;            5   
     511;   463.3519;            2   
     512;   464.2272;            9   
