Kanal;   Energie(keV); Impulse
       1;    16.9617;          549   
       2;    17.8370;          626   
       3;    18.7122;          564   
       4;    19.5875;          505   
       5;    20.4628;          525   
       6;    21.3381;          552   
       7;    22.2133;          497   
       8;    23.0886;          577   
       9;    23.9639;          474   
      10;    24.8392;          493   
      11;    25.7144;          508   
      12;    26.5897;          493   
      13;    27.4650;          460   
      14;    28.3403;          463   
      15;    29.2155;          458   
      16;    30.0908;          428   
      17;    30.9661;          433   
      18;    31.8414;          420   
      19;    32.7166;          428   
      20;    33.5919;          443   
      21;    34.4672;          461   
      22;    35.3425;          432   
      23;    36.2177;          424   
      24;    37.0930;          441   
      25;    37.9683;          433   
      26;    38.8436;          422   
      27;    39.7188;          467   
      28;    40.5941;          402   
      29;    41.4694;          388   
      30;    42.3447;          398   
      31;    43.2199;          436   
      32;    44.0952;          422   
      33;    44.9705;          389   
      34;    45.8458;          398   
      35;    46.7210;          373   
      36;    47.5963;          388   
      37;    48.4716;          377   
      38;    49.3469;          392   
      39;    50.2221;          387   
      40;    51.0974;          424   
      41;    51.9727;          411   
      42;    52.8480;          378   
      43;    53.7232;          396   
      44;    54.5985;          410   
      45;    55.4738;          438   
      46;    56.3491;          408   
      47;    57.2243;          382   
      48;    58.0996;          391   
      49;    58.9749;          403   
      50;    59.8502;          400   
      51;    60.7254;          383   
      52;    61.6007;          410   
      53;    62.4760;          405   
      54;    63.3513;          391   
      55;    64.2265;          450   
      56;    65.1018;          412   
      57;    65.9771;          406   
      58;    66.8524;          390   
      59;    67.7276;          412   
      60;    68.6029;          411   
      61;    69.4782;          438   
      62;    70.3535;          414   
      63;    71.2287;          419   
      64;    72.1040;          391   
      65;    72.9793;          445   
      66;    73.8546;          454   
      67;    74.7298;          511   
      68;    75.6051;          560   
      69;    76.4804;          502   
      70;    77.3557;          711   
      71;    78.2309;          619   
      72;    79.1062;          517   
      73;    79.9815;          481   
      74;    80.8568;          456   
      75;    81.7320;          494   
      76;    82.6073;          472   
      77;    83.4826;          490   
      78;    84.3579;          473   
      79;    85.2331;          477   
      80;    86.1084;          525   
      81;    86.9837;          570   
      82;    87.8590;          630   
      83;    88.7342;          517   
      84;    89.6095;          548   
      85;    90.4848;          562   
      86;    91.3601;          544   
      87;    92.2353;          545   
      88;    93.1106;          473   
      89;    93.9859;          513   
      90;    94.8612;          507   
      91;    95.7364;          503   
      92;    96.6117;          502   
      93;    97.4870;          503   
      94;    98.3623;          515   
      95;    99.2375;          511   
      96;   100.1128;          499   
      97;   100.9881;          503   
      98;   101.8634;          553   
      99;   102.7386;          534   
     100;   103.6139;          538   
     101;   104.4892;          552   
     102;   105.3645;          490   
     103;   106.2397;          545   
     104;   107.1150;          503   
     105;   107.9903;          526   
     106;   108.8656;          524   
     107;   109.7408;          515   
     108;   110.6161;          503   
     109;   111.4914;          546   
     110;   112.3667;          510   
     111;   113.2419;          523   
     112;   114.1172;          530   
     113;   114.9925;          540   
     114;   115.8678;          537   
     115;   116.7430;          513   
     116;   117.6183;          521   
     117;   118.4936;          509   
     118;   119.3689;          547   
     119;   120.2441;          575   
     120;   121.1194;          546   
     121;   121.9947;          519   
     122;   122.8700;          525   
     123;   123.7452;          533   
     124;   124.6205;          546   
     125;   125.4958;          532   
     126;   126.3711;          530   
     127;   127.2463;          541   
     128;   128.1216;          494   
     129;   128.9969;          518   
     130;   129.8722;          537   
     131;   130.7474;          526   
     132;   131.6227;          535   
     133;   132.4980;          487   
     134;   133.3733;          532   
     135;   134.2485;          499   
     136;   135.1238;          545   
     137;   135.9991;          541   
     138;   136.8744;          556   
     139;   137.7496;          498   
     140;   138.6249;          526   
     141;   139.5002;          569   
     142;   140.3755;          523   
     143;   141.2507;          502   
     144;   142.1260;          505   
     145;   143.0013;          478   
     146;   143.8766;          491   
     147;   144.7518;          491   
     148;   145.6271;          485   
     149;   146.5024;          497   
     150;   147.3777;          537   
     151;   148.2529;          519   
     152;   149.1282;          484   
     153;   150.0035;          488   
     154;   150.8788;          470   
     155;   151.7540;          492   
     156;   152.6293;          475   
     157;   153.5046;          504   
     158;   154.3799;          499   
     159;   155.2551;          506   
     160;   156.1304;          470   
     161;   157.0057;          473   
     162;   157.8810;          492   
     163;   158.7562;          476   
     164;   159.6315;          494   
     165;   160.5068;          473   
     166;   161.3821;          513   
     167;   162.2573;          481   
     168;   163.1326;          458   
     169;   164.0079;          467   
     170;   164.8832;          475   
     171;   165.7584;          505   
     172;   166.6337;          520   
     173;   167.5090;          452   
     174;   168.3843;          490   
     175;   169.2595;          486   
     176;   170.1348;          445   
     177;   171.0101;          457   
     178;   171.8854;          451   
     179;   172.7606;          512   
     180;   173.6359;          490   
     181;   174.5112;          531   
     182;   175.3865;          461   
     183;   176.2617;          471   
     184;   177.1370;          498   
     185;   178.0123;          549   
     186;   178.8876;          538   
     187;   179.7628;          502   
     188;   180.6381;          489   
     189;   181.5134;          477   
     190;   182.3887;          480   
     191;   183.2639;          522   
     192;   184.1392;          516   
     193;   185.0145;          504   
     194;   185.8898;          474   
     195;   186.7650;          484   
     196;   187.6403;          485   
     197;   188.5156;          478   
     198;   189.3909;          528   
     199;   190.2661;          528   
     200;   191.1414;          446   
     201;   192.0167;          497   
     202;   192.8920;          473   
     203;   193.7672;          464   
     204;   194.6425;          497   
     205;   195.5178;          484   
     206;   196.3931;          452   
     207;   197.2683;          482   
     208;   198.1436;          446   
     209;   199.0189;          490   
     210;   199.8942;          500   
     211;   200.7694;          450   
     212;   201.6447;          479   
     213;   202.5200;          487   
     214;   203.3953;          454   
     215;   204.2705;          464   
     216;   205.1458;          460   
     217;   206.0211;          468   
     218;   206.8964;          455   
     219;   207.7716;          439   
     220;   208.6469;          433   
     221;   209.5222;          451   
     222;   210.3975;          463   
     223;   211.2727;          482   
     224;   212.1480;          447   
     225;   213.0233;          451   
     226;   213.8986;          445   
     227;   214.7738;          452   
     228;   215.6491;          437   
     229;   216.5244;          458   
     230;   217.3997;          417   
     231;   218.2749;          482   
     232;   219.1502;          480   
     233;   220.0255;          435   
     234;   220.9008;          436   
     235;   221.7760;          423   
     236;   222.6513;          423   
     237;   223.5266;          444   
     238;   224.4019;          462   
     239;   225.2771;          458   
     240;   226.1524;          433   
     241;   227.0277;          444   
     242;   227.9030;          468   
     243;   228.7782;          444   
     244;   229.6535;          484   
     245;   230.5288;          417   
     246;   231.4041;          441   
     247;   232.2793;          416   
     248;   233.1546;          428   
     249;   234.0299;          426   
     250;   234.9052;          420   
     251;   235.7804;          435   
     252;   236.6557;          419   
     253;   237.5310;          437   
     254;   238.4063;          426   
     255;   239.2815;          436   
     256;   240.1568;          440   
     257;   241.0321;          444   
     258;   241.9074;          479   
     259;   242.7826;          560   
     260;   243.6579;          460   
     261;   244.5332;          436   
     262;   245.4085;          487   
     263;   246.2837;          437   
     264;   247.1590;          446   
     265;   248.0343;          404   
     266;   248.9096;          391   
     267;   249.7848;          417   
     268;   250.6601;          398   
     269;   251.5354;          414   
     270;   252.4107;          396   
     271;   253.2859;          421   
     272;   254.1612;          403   
     273;   255.0365;          424   
     274;   255.9118;          388   
     275;   256.7870;          421   
     276;   257.6623;          428   
     277;   258.5376;          395   
     278;   259.4129;          412   
     279;   260.2881;          377   
     280;   261.1634;          395   
     281;   262.0387;          403   
     282;   262.9140;          415   
     283;   263.7892;          447   
     284;   264.6645;          367   
     285;   265.5398;          407   
     286;   266.4151;          409   
     287;   267.2903;          386   
     288;   268.1656;          430   
     289;   269.0409;          391   
     290;   269.9162;          454   
     291;   270.7914;          414   
     292;   271.6667;          394   
     293;   272.5420;          394   
     294;   273.4173;          458   
     295;   274.2925;          416   
     296;   275.1678;          438   
     297;   276.0431;          417   
     298;   276.9184;          387   
     299;   277.7936;          373   
     300;   278.6689;          364   
     301;   279.5442;          413   
     302;   280.4195;          400   
     303;   281.2947;          432   
     304;   282.1700;          406   
     305;   283.0453;          418   
     306;   283.9206;          407   
     307;   284.7958;          400   
     308;   285.6711;          371   
     309;   286.5464;          392   
     310;   287.4217;          453   
     311;   288.2969;          414   
     312;   289.1722;          412   
     313;   290.0475;          403   
     314;   290.9228;          411   
     315;   291.7980;          364   
     316;   292.6733;          368   
     317;   293.5486;          414   
     318;   294.4239;          380   
     319;   295.2991;          422   
     320;   296.1744;          409   
     321;   297.0497;          459   
     322;   297.9250;          413   
     323;   298.8002;          407   
     324;   299.6755;          470   
     325;   300.5508;          432   
     326;   301.4261;          437   
     327;   302.3013;          393   
     328;   303.1766;          421   
     329;   304.0519;          433   
     330;   304.9272;          410   
     331;   305.8024;          412   
     332;   306.6777;          414   
     333;   307.5530;          405   
     334;   308.4283;          427   
     335;   309.3035;          375   
     336;   310.1788;          437   
     337;   311.0541;          412   
     338;   311.9294;          398   
     339;   312.8046;          396   
     340;   313.6799;          420   
     341;   314.5552;          414   
     342;   315.4305;          424   
     343;   316.3057;          466   
     344;   317.1810;          397   
     345;   318.0563;          430   
     346;   318.9316;          390   
     347;   319.8068;          419   
     348;   320.6821;          430   
     349;   321.5574;          408   
     350;   322.4327;          400   
     351;   323.3079;          436   
     352;   324.1832;          436   
     353;   325.0585;          422   
     354;   325.9338;          448   
     355;   326.8090;          416   
     356;   327.6843;          443   
     357;   328.5596;          428   
     358;   329.4349;          405   
     359;   330.3101;          441   
     360;   331.1854;          438   
     361;   332.0607;          443   
     362;   332.9360;          422   
     363;   333.8112;          422   
     364;   334.6865;          439   
     365;   335.5618;          444   
     366;   336.4371;          415   
     367;   337.3123;          410   
     368;   338.1876;          436   
     369;   339.0629;          436   
     370;   339.9382;          418   
     371;   340.8134;          408   
     372;   341.6887;          433   
     373;   342.5640;          448   
     374;   343.4393;          482   
     375;   344.3145;          405   
     376;   345.1898;          368   
     377;   346.0651;          362   
     378;   346.9404;          324   
     379;   347.8156;          341   
     380;   348.6909;          310   
     381;   349.5662;          297   
     382;   350.4415;          282   
     383;   351.3167;          301   
     384;   352.1920;          292   
     385;   353.0673;          281   
     386;   353.9426;          271   
     387;   354.8178;          277   
     388;   355.6931;          329   
     389;   356.5684;          333   
     390;   357.4437;          310   
     391;   358.3189;          275   
     392;   359.1942;          279   
     393;   360.0695;          265   
     394;   360.9448;          273   
     395;   361.8200;          217   
     396;   362.6953;          248   
     397;   363.5706;          253   
     398;   364.4459;          238   
     399;   365.3211;          247   
     400;   366.1964;          267   
     401;   367.0717;          277   
     402;   367.9470;          224   
     403;   368.8222;          233   
     404;   369.6975;          234   
     405;   370.5728;          238   
     406;   371.4481;          232   
     407;   372.3233;          228   
     408;   373.1986;          238   
     409;   374.0739;          211   
     410;   374.9492;          217   
     411;   375.8244;          216   
     412;   376.6997;          229   
     413;   377.5750;          230   
     414;   378.4503;          192   
     415;   379.3255;          226   
     416;   380.2008;          205   
     417;   381.0761;          232   
     418;   381.9514;          207   
     419;   382.8266;          187   
     420;   383.7019;          192   
     421;   384.5772;          228   
     422;   385.4525;          179   
     423;   386.3277;          202   
     424;   387.2030;          218   
     425;   388.0783;          209   
     426;   388.9536;          199   
     427;   389.8288;          210   
     428;   390.7041;          181   
     429;   391.5794;          197   
     430;   392.4547;          189   
     431;   393.3299;          207   
     432;   394.2052;          197   
     433;   395.0805;          196   
     434;   395.9558;          188   
     435;   396.8310;          191   
     436;   397.7063;          165   
     437;   398.5816;          200   
     438;   399.4569;          162   
     439;   400.3321;          172   
     440;   401.2074;          195   
     441;   402.0827;          185   
     442;   402.9580;          171   
     443;   403.8332;          182   
     444;   404.7085;          156   
     445;   405.5838;          167   
     446;   406.4591;          156   
     447;   407.3343;          158   
     448;   408.2096;          158   
     449;   409.0849;          166   
     450;   409.9602;          149   
     451;   410.8354;          178   
     452;   411.7107;          163   
     453;   412.5860;          153   
     454;   413.4613;          154   
     455;   414.3365;          140   
     456;   415.2118;          165   
     457;   416.0871;          165   
     458;   416.9624;          145   
     459;   417.8376;          155   
     460;   418.7129;          142   
     461;   419.5882;          146   
     462;   420.4635;          131   
     463;   421.3387;          150   
     464;   422.2140;          154   
     465;   423.0893;          146   
     466;   423.9646;          131   
     467;   424.8398;          148   
     468;   425.7151;          141   
     469;   426.5904;          150   
     470;   427.4657;          136   
     471;   428.3409;          153   
     472;   429.2162;          140   
     473;   430.0915;          155   
     474;   430.9668;          147   
     475;   431.8420;          132   
     476;   432.7173;          134   
     477;   433.5926;          139   
     478;   434.4679;          139   
     479;   435.3431;          143   
     480;   436.2184;          150   
     481;   437.0937;          136   
     482;   437.9690;          141   
     483;   438.8442;          154   
     484;   439.7195;          144   
     485;   440.5948;          152   
     486;   441.4701;          150   
     487;   442.3453;          148   
     488;   443.2206;          135   
     489;   444.0959;          122   
     490;   444.9712;          141   
     491;   445.8464;          141   
     492;   446.7217;          136   
     493;   447.5970;          123   
     494;   448.4723;          116   
     495;   449.3475;          136   
     496;   450.2228;          151   
     497;   451.0981;          140   
     498;   451.9734;          118   
     499;   452.8486;          143   
     500;   453.7239;          132   
     501;   454.5992;          133   
     502;   455.4745;          142   
     503;   456.3497;          133   
     504;   457.2250;          127   
     505;   458.1003;          145   
     506;   458.9756;          111   
     507;   459.8508;          134   
     508;   460.7261;          156   
     509;   461.6014;          138   
     510;   462.4767;          120   
     511;   463.3519;          123   
     512;   464.2272;          117   
