Kanal;   Energie(keV); Impulse
       1;    16.9617;         1090   
       2;    17.8370;         1154   
       3;    18.7122;         1114   
       4;    19.5875;         1224   
       5;    20.4628;         1292   
       6;    21.3381;         1363   
       7;    22.2133;         1467   
       8;    23.0886;         1558   
       9;    23.9639;         1597   
      10;    24.8392;         1726   
      11;    25.7144;         1856   
      12;    26.5897;         2029   
      13;    27.4650;         2209   
      14;    28.3403;         2343   
      15;    29.2155;         2477   
      16;    30.0908;         2606   
      17;    30.9661;         2634   
      18;    31.8414;         2548   
      19;    32.7166;         2616   
      20;    33.5919;         2477   
      21;    34.4672;         2411   
      22;    35.3425;         2453   
      23;    36.2177;         2431   
      24;    37.0930;         2333   
      25;    37.9683;         2332   
      26;    38.8436;         2286   
      27;    39.7188;         2371   
      28;    40.5941;         2191   
      29;    41.4694;         2276   
      30;    42.3447;         2223   
      31;    43.2199;         2245   
      32;    44.0952;         2202   
      33;    44.9705;         2226   
      34;    45.8458;         2135   
      35;    46.7210;         2173   
      36;    47.5963;         2109   
      37;    48.4716;         2133   
      38;    49.3469;         2109   
      39;    50.2221;         2137   
      40;    51.0974;         2075   
      41;    51.9727;         2098   
      42;    52.8480;         2068   
      43;    53.7232;         2053   
      44;    54.5985;         1992   
      45;    55.4738;         2045   
      46;    56.3491;         1982   
      47;    57.2243;         1970   
      48;    58.0996;         1979   
      49;    58.9749;         1909   
      50;    59.8502;         1894   
      51;    60.7254;         1924   
      52;    61.6007;         1865   
      53;    62.4760;         1901   
      54;    63.3513;         1785   
      55;    64.2265;         1802   
      56;    65.1018;         1862   
      57;    65.9771;         1772   
      58;    66.8524;         1850   
      59;    67.7276;         1795   
      60;    68.6029;         1832   
      61;    69.4782;         1773   
      62;    70.3535;         1727   
      63;    71.2287;         1708   
      64;    72.1040;         1662   
      65;    72.9793;         1647   
      66;    73.8546;         1622   
      67;    74.7298;         1716   
      68;    75.6051;         1613   
      69;    76.4804;         1505   
      70;    77.3557;         1519   
      71;    78.2309;         1529   
      72;    79.1062;         1461   
      73;    79.9815;         1456   
      74;    80.8568;         1461   
      75;    81.7320;         1391   
      76;    82.6073;         1407   
      77;    83.4826;         1352   
      78;    84.3579;         1415   
      79;    85.2331;         1469   
      80;    86.1084;         1406   
      81;    86.9837;         1376   
      82;    87.8590;         1334   
      83;    88.7342;         1372   
      84;    89.6095;         1295   
      85;    90.4848;         1264   
      86;    91.3601;         1286   
      87;    92.2353;         1237   
      88;    93.1106;         1234   
      89;    93.9859;         1278   
      90;    94.8612;         1146   
      91;    95.7364;         1159   
      92;    96.6117;         1096   
      93;    97.4870;         1076   
      94;    98.3623;         1041   
      95;    99.2375;         1055   
      96;   100.1128;          979   
      97;   100.9881;         1012   
      98;   101.8634;          927   
      99;   102.7386;          959   
     100;   103.6139;          927   
     101;   104.4892;          953   
     102;   105.3645;          945   
     103;   106.2397;          935   
     104;   107.1150;          938   
     105;   107.9903;          871   
     106;   108.8656;          834   
     107;   109.7408;          824   
     108;   110.6161;          907   
     109;   111.4914;          810   
     110;   112.3667;          815   
     111;   113.2419;          824   
     112;   114.1172;          769   
     113;   114.9925;          779   
     114;   115.8678;          739   
     115;   116.7430;          783   
     116;   117.6183;          762   
     117;   118.4936;          758   
     118;   119.3689;          708   
     119;   120.2441;          692   
     120;   121.1194;          718   
     121;   121.9947;          660   
     122;   122.8700;          718   
     123;   123.7452;          690   
     124;   124.6205;          626   
     125;   125.4958;          631   
     126;   126.3711;          666   
     127;   127.2463;          624   
     128;   128.1216;          572   
     129;   128.9969;          551   
     130;   129.8722;          569   
     131;   130.7474;          562   
     132;   131.6227;          591   
     133;   132.4980;          549   
     134;   133.3733;          545   
     135;   134.2485;          535   
     136;   135.1238;          536   
     137;   135.9991;          485   
     138;   136.8744;          501   
     139;   137.7496;          510   
     140;   138.6249;          503   
     141;   139.5002;          465   
     142;   140.3755;          476   
     143;   141.2507;          460   
     144;   142.1260;          468   
     145;   143.0013;          442   
     146;   143.8766;          406   
     147;   144.7518;          421   
     148;   145.6271;          406   
     149;   146.5024;          392   
     150;   147.3777;          407   
     151;   148.2529;          365   
     152;   149.1282;          385   
     153;   150.0035;          348   
     154;   150.8788;          400   
     155;   151.7540;          350   
     156;   152.6293;          360   
     157;   153.5046;          346   
     158;   154.3799;          352   
     159;   155.2551;          354   
     160;   156.1304;          309   
     161;   157.0057;          336   
     162;   157.8810;          347   
     163;   158.7562;          338   
     164;   159.6315;          321   
     165;   160.5068;          333   
     166;   161.3821;          331   
     167;   162.2573;          289   
     168;   163.1326;          335   
     169;   164.0079;          306   
     170;   164.8832;          307   
     171;   165.7584;          338   
     172;   166.6337;          349   
     173;   167.5090;          344   
     174;   168.3843;          333   
     175;   169.2595;          343   
     176;   170.1348;          331   
     177;   171.0101;          353   
     178;   171.8854;          353   
     179;   172.7606;          341   
     180;   173.6359;          348   
     181;   174.5112;          373   
     182;   175.3865;          381   
     183;   176.2617;          435   
     184;   177.1370;          465   
     185;   178.0123;          529   
     186;   178.8876;          556   
     187;   179.7628;          652   
     188;   180.6381;          684   
     189;   181.5134;          768   
     190;   182.3887;          901   
     191;   183.2639;         1039   
     192;   184.1392;         1056   
     193;   185.0145;         1166   
     194;   185.8898;         1335   
     195;   186.7650;         1516   
     196;   187.6403;         1544   
     197;   188.5156;         1616   
     198;   189.3909;         1650   
     199;   190.2661;         1817   
     200;   191.1414;         1739   
     201;   192.0167;         1716   
     202;   192.8920;         1640   
     203;   193.7672;         1694   
     204;   194.6425;         1576   
     205;   195.5178;         1415   
     206;   196.3931;         1340   
     207;   197.2683;         1250   
     208;   198.1436;         1062   
     209;   199.0189;          971   
     210;   199.8942;          916   
     211;   200.7694;          769   
     212;   201.6447;          631   
     213;   202.5200;          600   
     214;   203.3953;          515   
     215;   204.2705;          396   
     216;   205.1458;          377   
     217;   206.0211;          365   
     218;   206.8964;          327   
     219;   207.7716;          287   
     220;   208.6469;          252   
     221;   209.5222;          258   
     222;   210.3975;          232   
     223;   211.2727;          210   
     224;   212.1480;          222   
     225;   213.0233;          214   
     226;   213.8986;          217   
     227;   214.7738;          184   
     228;   215.6491;          209   
     229;   216.5244;          226   
     230;   217.3997;          199   
     231;   218.2749;          203   
     232;   219.1502;          211   
     233;   220.0255;          187   
     234;   220.9008;          178   
     235;   221.7760;          180   
     236;   222.6513;          174   
     237;   223.5266;          154   
     238;   224.4019;          195   
     239;   225.2771;          190   
     240;   226.1524;          188   
     241;   227.0277;          171   
     242;   227.9030;          165   
     243;   228.7782;          171   
     244;   229.6535;          167   
     245;   230.5288;          151   
     246;   231.4041;          166   
     247;   232.2793;          150   
     248;   233.1546;          164   
     249;   234.0299;          161   
     250;   234.9052;          127   
     251;   235.7804;          138   
     252;   236.6557;          148   
     253;   237.5310;          121   
     254;   238.4063;          135   
     255;   239.2815;          160   
     256;   240.1568;          135   
     257;   241.0321;          118   
     258;   241.9074;          117   
     259;   242.7826;          128   
     260;   243.6579;          118   
     261;   244.5332;          125   
     262;   245.4085;          112   
     263;   246.2837;          102   
     264;   247.1590;           95   
     265;   248.0343;          121   
     266;   248.9096;          114   
     267;   249.7848;          116   
     268;   250.6601;          106   
     269;   251.5354;          111   
     270;   252.4107;          103   
     271;   253.2859;          109   
     272;   254.1612;          126   
     273;   255.0365;          117   
     274;   255.9118;          104   
     275;   256.7870;          107   
     276;   257.6623;          105   
     277;   258.5376;          107   
     278;   259.4129;          105   
     279;   260.2881;           89   
     280;   261.1634;           98   
     281;   262.0387;           99   
     282;   262.9140;           97   
     283;   263.7892;           95   
     284;   264.6645;           95   
     285;   265.5398;          112   
     286;   266.4151;           95   
     287;   267.2903;           98   
     288;   268.1656;          118   
     289;   269.0409;          114   
     290;   269.9162;           75   
     291;   270.7914;          128   
     292;   271.6667;           94   
     293;   272.5420;           86   
     294;   273.4173;           76   
     295;   274.2925;           86   
     296;   275.1678;           85   
     297;   276.0431;          120   
     298;   276.9184;          114   
     299;   277.7936;           96   
     300;   278.6689;          112   
     301;   279.5442;           82   
     302;   280.4195;           95   
     303;   281.2947;           96   
     304;   282.1700;           71   
     305;   283.0453;           89   
     306;   283.9206;           87   
     307;   284.7958;           70   
     308;   285.6711;           85   
     309;   286.5464;           75   
     310;   287.4217;           84   
     311;   288.2969;          104   
     312;   289.1722;           88   
     313;   290.0475;           93   
     314;   290.9228;          105   
     315;   291.7980;           93   
     316;   292.6733;           95   
     317;   293.5486;           97   
     318;   294.4239;           76   
     319;   295.2991;           76   
     320;   296.1744;           89   
     321;   297.0497;           90   
     322;   297.9250;           74   
     323;   298.8002;           83   
     324;   299.6755;           83   
     325;   300.5508;           75   
     326;   301.4261;           86   
     327;   302.3013;           83   
     328;   303.1766;           72   
     329;   304.0519;           99   
     330;   304.9272;           79   
     331;   305.8024;           58   
     332;   306.6777;           87   
     333;   307.5530;           91   
     334;   308.4283;           76   
     335;   309.3035;           91   
     336;   310.1788;           74   
     337;   311.0541;           87   
     338;   311.9294;           78   
     339;   312.8046;           80   
     340;   313.6799;           66   
     341;   314.5552;           69   
     342;   315.4305;           98   
     343;   316.3057;           66   
     344;   317.1810;           70   
     345;   318.0563;           59   
     346;   318.9316;           74   
     347;   319.8068;           85   
     348;   320.6821;           78   
     349;   321.5574;           86   
     350;   322.4327;           71   
     351;   323.3079;           68   
     352;   324.1832;           83   
     353;   325.0585;           65   
     354;   325.9338;           66   
     355;   326.8090;           72   
     356;   327.6843;           67   
     357;   328.5596;           78   
     358;   329.4349;           59   
     359;   330.3101;           72   
     360;   331.1854;           65   
     361;   332.0607;           60   
     362;   332.9360;           67   
     363;   333.8112;           64   
     364;   334.6865;           73   
     365;   335.5618;           69   
     366;   336.4371;           60   
     367;   337.3123;           64   
     368;   338.1876;           69   
     369;   339.0629;           66   
     370;   339.9382;           63   
     371;   340.8134;           69   
     372;   341.6887;           70   
     373;   342.5640;           67   
     374;   343.4393;           92   
     375;   344.3145;           59   
     376;   345.1898;           61   
     377;   346.0651;           72   
     378;   346.9404;           60   
     379;   347.8156;           69   
     380;   348.6909;           66   
     381;   349.5662;           63   
     382;   350.4415;           71   
     383;   351.3167;           76   
     384;   352.1920;           75   
     385;   353.0673;           57   
     386;   353.9426;           60   
     387;   354.8178;           66   
     388;   355.6931;           71   
     389;   356.5684;           62   
     390;   357.4437;           79   
     391;   358.3189;           64   
     392;   359.1942;           67   
     393;   360.0695;           72   
     394;   360.9448;           64   
     395;   361.8200;           70   
     396;   362.6953;           62   
     397;   363.5706;           85   
     398;   364.4459;           54   
     399;   365.3211;           75   
     400;   366.1964;           55   
     401;   367.0717;           67   
     402;   367.9470;           66   
     403;   368.8222;           70   
     404;   369.6975;           77   
     405;   370.5728;           68   
     406;   371.4481;           61   
     407;   372.3233;           74   
     408;   373.1986;           67   
     409;   374.0739;           64   
     410;   374.9492;           63   
     411;   375.8244;           81   
     412;   376.6997;           68   
     413;   377.5750;           63   
     414;   378.4503;           70   
     415;   379.3255;           61   
     416;   380.2008;           69   
     417;   381.0761;           65   
     418;   381.9514;           72   
     419;   382.8266;           63   
     420;   383.7019;           65   
     421;   384.5772;           58   
     422;   385.4525;           79   
     423;   386.3277;           66   
     424;   387.2030;           68   
     425;   388.0783;           64   
     426;   388.9536;           63   
     427;   389.8288;           74   
     428;   390.7041;           72   
     429;   391.5794;           80   
     430;   392.4547;           69   
     431;   393.3299;           56   
     432;   394.2052;           83   
     433;   395.0805;           71   
     434;   395.9558;           68   
     435;   396.8310;           68   
     436;   397.7063;           74   
     437;   398.5816;           70   
     438;   399.4569;           71   
     439;   400.3321;           78   
     440;   401.2074;           70   
     441;   402.0827;           72   
     442;   402.9580;           71   
     443;   403.8332;           57   
     444;   404.7085;           50   
     445;   405.5838;           71   
     446;   406.4591;           71   
     447;   407.3343;           63   
     448;   408.2096;           76   
     449;   409.0849;           54   
     450;   409.9602;           64   
     451;   410.8354;           53   
     452;   411.7107;           66   
     453;   412.5860;           71   
     454;   413.4613;           82   
     455;   414.3365;           71   
     456;   415.2118;           77   
     457;   416.0871;           62   
     458;   416.9624;           77   
     459;   417.8376;           63   
     460;   418.7129;           65   
     461;   419.5882;           54   
     462;   420.4635;           60   
     463;   421.3387;           74   
     464;   422.2140;           84   
     465;   423.0893;           77   
     466;   423.9646;           69   
     467;   424.8398;           71   
     468;   425.7151;           62   
     469;   426.5904;           73   
     470;   427.4657;           73   
     471;   428.3409;           58   
     472;   429.2162;           66   
     473;   430.0915;           65   
     474;   430.9668;           78   
     475;   431.8420;           60   
     476;   432.7173;           69   
     477;   433.5926;           69   
     478;   434.4679;           61   
     479;   435.3431;           66   
     480;   436.2184;           73   
     481;   437.0937;           56   
     482;   437.9690;           65   
     483;   438.8442;           60   
     484;   439.7195;           63   
     485;   440.5948;           58   
     486;   441.4701;           65   
     487;   442.3453;           66   
     488;   443.2206;           62   
     489;   444.0959;           56   
     490;   444.9712;           57   
     491;   445.8464;           58   
     492;   446.7217;           58   
     493;   447.5970;           56   
     494;   448.4723;           70   
     495;   449.3475;           49   
     496;   450.2228;           53   
     497;   451.0981;           70   
     498;   451.9734;           74   
     499;   452.8486;           62   
     500;   453.7239;           65   
     501;   454.5992;           52   
     502;   455.4745;           64   
     503;   456.3497;           61   
     504;   457.2250;           55   
     505;   458.1003;           54   
     506;   458.9756;           64   
     507;   459.8508;           59   
     508;   460.7261;           50   
     509;   461.6014;           50   
     510;   462.4767;           52   
     511;   463.3519;           50   
     512;   464.2272;           51   
