Kanal;   Energie(keV); Impulse
       1;    16.9617;          232   
       2;    17.8370;          242   
       3;    18.7122;          227   
       4;    19.5875;          235   
       5;    20.4628;          212   
       6;    21.3381;          200   
       7;    22.2133;          201   
       8;    23.0886;          187   
       9;    23.9639;          154   
      10;    24.8392;          205   
      11;    25.7144;          214   
      12;    26.5897;          180   
      13;    27.4650;          186   
      14;    28.3403;          180   
      15;    29.2155;          186   
      16;    30.0908;          169   
      17;    30.9661;          174   
      18;    31.8414;          176   
      19;    32.7166;          136   
      20;    33.5919;          156   
      21;    34.4672;          161   
      22;    35.3425;          145   
      23;    36.2177;          151   
      24;    37.0930;          137   
      25;    37.9683;          147   
      26;    38.8436;          144   
      27;    39.7188;          159   
      28;    40.5941;          146   
      29;    41.4694;          150   
      30;    42.3447;          146   
      31;    43.2199;          145   
      32;    44.0952;          176   
      33;    44.9705;          136   
      34;    45.8458;          128   
      35;    46.7210;          130   
      36;    47.5963;          140   
      37;    48.4716;          140   
      38;    49.3469;          131   
      39;    50.2221;          128   
      40;    51.0974;          125   
      41;    51.9727;          132   
      42;    52.8480;          142   
      43;    53.7232;          146   
      44;    54.5985;          154   
      45;    55.4738;          148   
      46;    56.3491;          137   
      47;    57.2243;          144   
      48;    58.0996;          143   
      49;    58.9749;          145   
      50;    59.8502;          113   
      51;    60.7254;          161   
      52;    61.6007;          182   
      53;    62.4760;          144   
      54;    63.3513;          188   
      55;    64.2265;          164   
      56;    65.1018;          166   
      57;    65.9771;          145   
      58;    66.8524;          162   
      59;    67.7276;          178   
      60;    68.6029;          175   
      61;    69.4782;          186   
      62;    70.3535;          176   
      63;    71.2287;          191   
      64;    72.1040;          182   
      65;    72.9793;          199   
      66;    73.8546;          210   
      67;    74.7298;          270   
      68;    75.6051;          337   
      69;    76.4804;          304   
      70;    77.3557;          423   
      71;    78.2309;          450   
      72;    79.1062;          315   
      73;    79.9815;          265   
      74;    80.8568;          243   
      75;    81.7320;          242   
      76;    82.6073;          259   
      77;    83.4826;          240   
      78;    84.3579;          265   
      79;    85.2331;          257   
      80;    86.1084;          274   
      81;    86.9837;          331   
      82;    87.8590;          429   
      83;    88.7342;          315   
      84;    89.6095;          323   
      85;    90.4848;          306   
      86;    91.3601;          255   
      87;    92.2353;          303   
      88;    93.1106;          257   
      89;    93.9859;          279   
      90;    94.8612;          284   
      91;    95.7364;          306   
      92;    96.6117;          285   
      93;    97.4870;          282   
      94;    98.3623;          289   
      95;    99.2375;          299   
      96;   100.1128;          268   
      97;   100.9881;          276   
      98;   101.8634;          315   
      99;   102.7386;          265   
     100;   103.6139;          301   
     101;   104.4892;          300   
     102;   105.3645;          276   
     103;   106.2397;          283   
     104;   107.1150;          263   
     105;   107.9903;          311   
     106;   108.8656;          323   
     107;   109.7408;          305   
     108;   110.6161;          256   
     109;   111.4914;          286   
     110;   112.3667;          305   
     111;   113.2419;          325   
     112;   114.1172;          299   
     113;   114.9925;          308   
     114;   115.8678;          287   
     115;   116.7430;          300   
     116;   117.6183;          317   
     117;   118.4936;          299   
     118;   119.3689;          303   
     119;   120.2441;          297   
     120;   121.1194;          307   
     121;   121.9947;          276   
     122;   122.8700;          274   
     123;   123.7452;          282   
     124;   124.6205;          331   
     125;   125.4958;          313   
     126;   126.3711;          291   
     127;   127.2463;          305   
     128;   128.1216;          293   
     129;   128.9969;          305   
     130;   129.8722;          311   
     131;   130.7474;          317   
     132;   131.6227;          301   
     133;   132.4980;          327   
     134;   133.3733;          292   
     135;   134.2485;          277   
     136;   135.1238;          305   
     137;   135.9991;          314   
     138;   136.8744;          302   
     139;   137.7496;          275   
     140;   138.6249;          289   
     141;   139.5002;          277   
     142;   140.3755;          279   
     143;   141.2507;          258   
     144;   142.1260;          245   
     145;   143.0013;          248   
     146;   143.8766;          248   
     147;   144.7518;          255   
     148;   145.6271;          256   
     149;   146.5024;          260   
     150;   147.3777;          283   
     151;   148.2529;          237   
     152;   149.1282;          262   
     153;   150.0035;          251   
     154;   150.8788;          236   
     155;   151.7540;          250   
     156;   152.6293;          270   
     157;   153.5046;          258   
     158;   154.3799;          235   
     159;   155.2551;          245   
     160;   156.1304;          230   
     161;   157.0057;          248   
     162;   157.8810;          223   
     163;   158.7562;          239   
     164;   159.6315;          249   
     165;   160.5068;          240   
     166;   161.3821;          231   
     167;   162.2573;          247   
     168;   163.1326;          210   
     169;   164.0079;          210   
     170;   164.8832;          217   
     171;   165.7584;          213   
     172;   166.6337;          209   
     173;   167.5090;          194   
     174;   168.3843;          248   
     175;   169.2595;          207   
     176;   170.1348;          222   
     177;   171.0101;          212   
     178;   171.8854;          205   
     179;   172.7606;          198   
     180;   173.6359;          216   
     181;   174.5112;          212   
     182;   175.3865;          192   
     183;   176.2617;          206   
     184;   177.1370;          220   
     185;   178.0123;          175   
     186;   178.8876;          208   
     187;   179.7628;          212   
     188;   180.6381;          194   
     189;   181.5134;          215   
     190;   182.3887;          188   
     191;   183.2639;          214   
     192;   184.1392;          163   
     193;   185.0145;          189   
     194;   185.8898;          182   
     195;   186.7650;          188   
     196;   187.6403;          196   
     197;   188.5156;          205   
     198;   189.3909;          209   
     199;   190.2661;          178   
     200;   191.1414;          214   
     201;   192.0167;          189   
     202;   192.8920;          168   
     203;   193.7672;          181   
     204;   194.6425;          182   
     205;   195.5178;          174   
     206;   196.3931;          184   
     207;   197.2683;          181   
     208;   198.1436;          178   
     209;   199.0189;          176   
     210;   199.8942;          169   
     211;   200.7694;          180   
     212;   201.6447;          183   
     213;   202.5200;          152   
     214;   203.3953;          171   
     215;   204.2705;          164   
     216;   205.1458;          173   
     217;   206.0211;          178   
     218;   206.8964;          155   
     219;   207.7716;          161   
     220;   208.6469;          145   
     221;   209.5222;          164   
     222;   210.3975;          145   
     223;   211.2727;          166   
     224;   212.1480;          161   
     225;   213.0233;          173   
     226;   213.8986;          154   
     227;   214.7738;          160   
     228;   215.6491;          179   
     229;   216.5244;          129   
     230;   217.3997;          138   
     231;   218.2749;          155   
     232;   219.1502;          135   
     233;   220.0255;          135   
     234;   220.9008;          142   
     235;   221.7760;          150   
     236;   222.6513;          134   
     237;   223.5266;          146   
     238;   224.4019;          150   
     239;   225.2771;          139   
     240;   226.1524;          136   
     241;   227.0277;          144   
     242;   227.9030;          129   
     243;   228.7782;          139   
     244;   229.6535;          144   
     245;   230.5288;          146   
     246;   231.4041;          133   
     247;   232.2793;          131   
     248;   233.1546;          127   
     249;   234.0299;          133   
     250;   234.9052;          145   
     251;   235.7804;          131   
     252;   236.6557;          145   
     253;   237.5310;          123   
     254;   238.4063;          147   
     255;   239.2815;          117   
     256;   240.1568;          138   
     257;   241.0321;          153   
     258;   241.9074;          202   
     259;   242.7826;          249   
     260;   243.6579;          172   
     261;   244.5332;          133   
     262;   245.4085;          137   
     263;   246.2837;          158   
     264;   247.1590;          151   
     265;   248.0343;          122   
     266;   248.9096;          114   
     267;   249.7848;           99   
     268;   250.6601;          104   
     269;   251.5354;          125   
     270;   252.4107;          125   
     271;   253.2859;          104   
     272;   254.1612;          112   
     273;   255.0365;          122   
     274;   255.9118;          117   
     275;   256.7870;          120   
     276;   257.6623;          110   
     277;   258.5376;          107   
     278;   259.4129;           88   
     279;   260.2881;          104   
     280;   261.1634;          105   
     281;   262.0387;          114   
     282;   262.9140;           97   
     283;   263.7892;          114   
     284;   264.6645;          102   
     285;   265.5398;          101   
     286;   266.4151;          119   
     287;   267.2903;           85   
     288;   268.1656;          106   
     289;   269.0409;           77   
     290;   269.9162;          101   
     291;   270.7914;          113   
     292;   271.6667;          102   
     293;   272.5420;          103   
     294;   273.4173;          101   
     295;   274.2925;          108   
     296;   275.1678;           99   
     297;   276.0431;          102   
     298;   276.9184;           97   
     299;   277.7936;           87   
     300;   278.6689;           91   
     301;   279.5442;          103   
     302;   280.4195;           79   
     303;   281.2947;           84   
     304;   282.1700;           97   
     305;   283.0453;           88   
     306;   283.9206;           76   
     307;   284.7958;           84   
     308;   285.6711;           88   
     309;   286.5464;           76   
     310;   287.4217;           85   
     311;   288.2969;           81   
     312;   289.1722;          106   
     313;   290.0475;           88   
     314;   290.9228;           83   
     315;   291.7980;           93   
     316;   292.6733;           80   
     317;   293.5486;           89   
     318;   294.4239;           81   
     319;   295.2991;           73   
     320;   296.1744;           91   
     321;   297.0497;           78   
     322;   297.9250;           90   
     323;   298.8002;          103   
     324;   299.6755;          118   
     325;   300.5508;          110   
     326;   301.4261;           75   
     327;   302.3013;           67   
     328;   303.1766;           97   
     329;   304.0519;           90   
     330;   304.9272;           83   
     331;   305.8024;           70   
     332;   306.6777;           95   
     333;   307.5530;           76   
     334;   308.4283;           72   
     335;   309.3035;           71   
     336;   310.1788;           71   
     337;   311.0541;           71   
     338;   311.9294;           92   
     339;   312.8046;           74   
     340;   313.6799;           70   
     341;   314.5552;           79   
     342;   315.4305;           57   
     343;   316.3057;           76   
     344;   317.1810;           66   
     345;   318.0563;           65   
     346;   318.9316;           74   
     347;   319.8068;           64   
     348;   320.6821;           61   
     349;   321.5574;           97   
     350;   322.4327;           73   
     351;   323.3079;           63   
     352;   324.1832;           82   
     353;   325.0585;           62   
     354;   325.9338;           63   
     355;   326.8090;           62   
     356;   327.6843;           65   
     357;   328.5596;           74   
     358;   329.4349;           62   
     359;   330.3101;           63   
     360;   331.1854;           76   
     361;   332.0607;           79   
     362;   332.9360;           76   
     363;   333.8112;           81   
     364;   334.6865;           52   
     365;   335.5618;           68   
     366;   336.4371;           60   
     367;   337.3123;           63   
     368;   338.1876;           69   
     369;   339.0629;           69   
     370;   339.9382;           76   
     371;   340.8134;           43   
     372;   341.6887;           79   
     373;   342.5640;          100   
     374;   343.4393;           77   
     375;   344.3145;           66   
     376;   345.1898;           60   
     377;   346.0651;           60   
     378;   346.9404;           67   
     379;   347.8156;           55   
     380;   348.6909;           59   
     381;   349.5662;           65   
     382;   350.4415;           58   
     383;   351.3167;           61   
     384;   352.1920;           48   
     385;   353.0673;           55   
     386;   353.9426;           59   
     387;   354.8178;           45   
     388;   355.6931;           96   
     389;   356.5684;          148   
     390;   357.4437;          126   
     391;   358.3189;           85   
     392;   359.1942;           76   
     393;   360.0695;           66   
     394;   360.9448;           56   
     395;   361.8200;           63   
     396;   362.6953;           58   
     397;   363.5706;           57   
     398;   364.4459;           54   
     399;   365.3211;           64   
     400;   366.1964;           46   
     401;   367.0717;           52   
     402;   367.9470;           49   
     403;   368.8222;           59   
     404;   369.6975;           48   
     405;   370.5728;           55   
     406;   371.4481;           51   
     407;   372.3233;           55   
     408;   373.1986;           59   
     409;   374.0739;           43   
     410;   374.9492;           54   
     411;   375.8244;           43   
     412;   376.6997;           55   
     413;   377.5750;           65   
     414;   378.4503;           64   
     415;   379.3255;           53   
     416;   380.2008;           60   
     417;   381.0761;           52   
     418;   381.9514;           57   
     419;   382.8266;           48   
     420;   383.7019;           51   
     421;   384.5772;           54   
     422;   385.4525;           55   
     423;   386.3277;           45   
     424;   387.2030;           35   
     425;   388.0783;           49   
     426;   388.9536;           55   
     427;   389.8288;           55   
     428;   390.7041;           44   
     429;   391.5794;           45   
     430;   392.4547;           47   
     431;   393.3299;           41   
     432;   394.2052;           69   
     433;   395.0805;           60   
     434;   395.9558;           53   
     435;   396.8310;           36   
     436;   397.7063;           46   
     437;   398.5816;           49   
     438;   399.4569;           50   
     439;   400.3321;           43   
     440;   401.2074;           42   
     441;   402.0827;           41   
     442;   402.9580;           43   
     443;   403.8332;           53   
     444;   404.7085;           39   
     445;   405.5838;           40   
     446;   406.4591;           44   
     447;   407.3343;           42   
     448;   408.2096;           57   
     449;   409.0849;           46   
     450;   409.9602;           37   
     451;   410.8354;           49   
     452;   411.7107;           29   
     453;   412.5860;           43   
     454;   413.4613;           38   
     455;   414.3365;           44   
     456;   415.2118;           58   
     457;   416.0871;           47   
     458;   416.9624;           54   
     459;   417.8376;           47   
     460;   418.7129;           45   
     461;   419.5882;           45   
     462;   420.4635;           44   
     463;   421.3387;           43   
     464;   422.2140;           36   
     465;   423.0893;           33   
     466;   423.9646;           35   
     467;   424.8398;           43   
     468;   425.7151;           40   
     469;   426.5904;           51   
     470;   427.4657;           39   
     471;   428.3409;           67   
     472;   429.2162;           39   
     473;   430.0915;           41   
     474;   430.9668;           48   
     475;   431.8420;           41   
     476;   432.7173;           43   
     477;   433.5926;           25   
     478;   434.4679;           36   
     479;   435.3431;           47   
     480;   436.2184;           29   
     481;   437.0937;           39   
     482;   437.9690;           42   
     483;   438.8442;           42   
     484;   439.7195;           31   
     485;   440.5948;           35   
     486;   441.4701;           38   
     487;   442.3453;           37   
     488;   443.2206;           58   
     489;   444.0959;           40   
     490;   444.9712;           53   
     491;   445.8464;           37   
     492;   446.7217;           39   
     493;   447.5970;           30   
     494;   448.4723;           41   
     495;   449.3475;           26   
     496;   450.2228;           51   
     497;   451.0981;           34   
     498;   451.9734;           38   
     499;   452.8486;           33   
     500;   453.7239;           36   
     501;   454.5992;           41   
     502;   455.4745;           35   
     503;   456.3497;           44   
     504;   457.2250;           38   
     505;   458.1003;           46   
     506;   458.9756;           45   
     507;   459.8508;           29   
     508;   460.7261;           38   
     509;   461.6014;           40   
     510;   462.4767;           43   
     511;   463.3519;           39   
     512;   464.2272;           40   
