Kanal;   Energie(keV); Impulse
       1;    16.9617;          235   
       2;    17.8370;          222   
       3;    18.7122;          250   
       4;    19.5875;          220   
       5;    20.4628;          200   
       6;    21.3381;          190   
       7;    22.2133;          211   
       8;    23.0886;          213   
       9;    23.9639;          203   
      10;    24.8392;          184   
      11;    25.7144;          202   
      12;    26.5897;          176   
      13;    27.4650;          188   
      14;    28.3403;          152   
      15;    29.2155;          162   
      16;    30.0908;          172   
      17;    30.9661;          152   
      18;    31.8414;          156   
      19;    32.7166;          144   
      20;    33.5919;          192   
      21;    34.4672;          160   
      22;    35.3425;          170   
      23;    36.2177;          134   
      24;    37.0930;          141   
      25;    37.9683;          174   
      26;    38.8436;          155   
      27;    39.7188;          152   
      28;    40.5941;          149   
      29;    41.4694;          162   
      30;    42.3447;          155   
      31;    43.2199;          135   
      32;    44.0952;          149   
      33;    44.9705;          121   
      34;    45.8458;          149   
      35;    46.7210;          134   
      36;    47.5963;          141   
      37;    48.4716;          131   
      38;    49.3469;          148   
      39;    50.2221;          139   
      40;    51.0974;          157   
      41;    51.9727;          134   
      42;    52.8480;          136   
      43;    53.7232;          138   
      44;    54.5985;          122   
      45;    55.4738;          128   
      46;    56.3491;          150   
      47;    57.2243;          133   
      48;    58.0996;          138   
      49;    58.9749;          128   
      50;    59.8502;          139   
      51;    60.7254;          148   
      52;    61.6007;          156   
      53;    62.4760;          164   
      54;    63.3513;          143   
      55;    64.2265;          154   
      56;    65.1018;          139   
      57;    65.9771;          161   
      58;    66.8524;          160   
      59;    67.7276;          168   
      60;    68.6029;          166   
      61;    69.4782;          186   
      62;    70.3535;          223   
      63;    71.2287;          216   
      64;    72.1040;          216   
      65;    72.9793;          221   
      66;    73.8546;          200   
      67;    74.7298;          286   
      68;    75.6051;          330   
      69;    76.4804;          315   
      70;    77.3557;          384   
      71;    78.2309;          395   
      72;    79.1062;          308   
      73;    79.9815;          276   
      74;    80.8568;          217   
      75;    81.7320;          233   
      76;    82.6073;          199   
      77;    83.4826;          238   
      78;    84.3579;          245   
      79;    85.2331;          256   
      80;    86.1084;          310   
      81;    86.9837;          374   
      82;    87.8590;          368   
      83;    88.7342;          321   
      84;    89.6095;          296   
      85;    90.4848;          304   
      86;    91.3601;          313   
      87;    92.2353;          299   
      88;    93.1106;          253   
      89;    93.9859;          273   
      90;    94.8612;          294   
      91;    95.7364;          314   
      92;    96.6117;          314   
      93;    97.4870;          273   
      94;    98.3623;          249   
      95;    99.2375;          281   
      96;   100.1128;          261   
      97;   100.9881;          259   
      98;   101.8634;          288   
      99;   102.7386;          296   
     100;   103.6139;          290   
     101;   104.4892;          282   
     102;   105.3645;          289   
     103;   106.2397;          315   
     104;   107.1150;          288   
     105;   107.9903;          288   
     106;   108.8656;          301   
     107;   109.7408;          306   
     108;   110.6161;          299   
     109;   111.4914;          292   
     110;   112.3667;          271   
     111;   113.2419;          304   
     112;   114.1172;          293   
     113;   114.9925;          294   
     114;   115.8678;          275   
     115;   116.7430;          280   
     116;   117.6183;          285   
     117;   118.4936;          283   
     118;   119.3689;          278   
     119;   120.2441;          325   
     120;   121.1194;          295   
     121;   121.9947;          281   
     122;   122.8700;          275   
     123;   123.7452;          296   
     124;   124.6205;          273   
     125;   125.4958;          310   
     126;   126.3711;          290   
     127;   127.2463;          270   
     128;   128.1216;          244   
     129;   128.9969;          325   
     130;   129.8722;          299   
     131;   130.7474;          287   
     132;   131.6227;          299   
     133;   132.4980;          295   
     134;   133.3733;          300   
     135;   134.2485;          247   
     136;   135.1238;          261   
     137;   135.9991;          298   
     138;   136.8744;          277   
     139;   137.7496;          297   
     140;   138.6249;          247   
     141;   139.5002;          286   
     142;   140.3755;          283   
     143;   141.2507;          244   
     144;   142.1260;          266   
     145;   143.0013;          267   
     146;   143.8766;          237   
     147;   144.7518;          235   
     148;   145.6271;          261   
     149;   146.5024;          246   
     150;   147.3777;          220   
     151;   148.2529;          246   
     152;   149.1282;          293   
     153;   150.0035;          246   
     154;   150.8788;          235   
     155;   151.7540;          232   
     156;   152.6293;          269   
     157;   153.5046;          234   
     158;   154.3799;          258   
     159;   155.2551;          241   
     160;   156.1304;          229   
     161;   157.0057;          253   
     162;   157.8810;          222   
     163;   158.7562;          223   
     164;   159.6315;          262   
     165;   160.5068;          241   
     166;   161.3821;          220   
     167;   162.2573;          230   
     168;   163.1326;          208   
     169;   164.0079;          204   
     170;   164.8832;          217   
     171;   165.7584;          219   
     172;   166.6337;          217   
     173;   167.5090;          206   
     174;   168.3843;          218   
     175;   169.2595;          224   
     176;   170.1348;          215   
     177;   171.0101;          223   
     178;   171.8854;          190   
     179;   172.7606;          217   
     180;   173.6359;          210   
     181;   174.5112;          199   
     182;   175.3865;          208   
     183;   176.2617;          205   
     184;   177.1370;          226   
     185;   178.0123;          209   
     186;   178.8876;          192   
     187;   179.7628;          193   
     188;   180.6381;          177   
     189;   181.5134;          219   
     190;   182.3887;          194   
     191;   183.2639;          188   
     192;   184.1392;          179   
     193;   185.0145;          159   
     194;   185.8898;          188   
     195;   186.7650;          196   
     196;   187.6403;          196   
     197;   188.5156;          188   
     198;   189.3909;          188   
     199;   190.2661;          200   
     200;   191.1414;          171   
     201;   192.0167;          179   
     202;   192.8920;          178   
     203;   193.7672;          172   
     204;   194.6425;          207   
     205;   195.5178;          200   
     206;   196.3931;          188   
     207;   197.2683;          177   
     208;   198.1436;          187   
     209;   199.0189;          178   
     210;   199.8942;          172   
     211;   200.7694;          164   
     212;   201.6447;          178   
     213;   202.5200;          152   
     214;   203.3953;          159   
     215;   204.2705;          172   
     216;   205.1458;          162   
     217;   206.0211;          173   
     218;   206.8964;          160   
     219;   207.7716;          145   
     220;   208.6469;          167   
     221;   209.5222;          156   
     222;   210.3975;          144   
     223;   211.2727;          149   
     224;   212.1480;          166   
     225;   213.0233;          164   
     226;   213.8986;          158   
     227;   214.7738;          142   
     228;   215.6491;          163   
     229;   216.5244;          166   
     230;   217.3997;          134   
     231;   218.2749;          127   
     232;   219.1502;          133   
     233;   220.0255;          159   
     234;   220.9008;          165   
     235;   221.7760;          160   
     236;   222.6513;          132   
     237;   223.5266;          163   
     238;   224.4019;          152   
     239;   225.2771;          152   
     240;   226.1524;          155   
     241;   227.0277;          137   
     242;   227.9030;          129   
     243;   228.7782;          134   
     244;   229.6535;          126   
     245;   230.5288;          137   
     246;   231.4041;          130   
     247;   232.2793;          136   
     248;   233.1546;          131   
     249;   234.0299;          125   
     250;   234.9052;          131   
     251;   235.7804;          125   
     252;   236.6557;          128   
     253;   237.5310;          132   
     254;   238.4063;          128   
     255;   239.2815;          132   
     256;   240.1568;          139   
     257;   241.0321;          157   
     258;   241.9074;          220   
     259;   242.7826;          286   
     260;   243.6579;          187   
     261;   244.5332;          119   
     262;   245.4085;          164   
     263;   246.2837;          129   
     264;   247.1590;          129   
     265;   248.0343;          126   
     266;   248.9096;          106   
     267;   249.7848;           97   
     268;   250.6601;          117   
     269;   251.5354;          117   
     270;   252.4107;          118   
     271;   253.2859;          116   
     272;   254.1612;          114   
     273;   255.0365;           91   
     274;   255.9118;          122   
     275;   256.7870;          107   
     276;   257.6623;          122   
     277;   258.5376;           86   
     278;   259.4129;          101   
     279;   260.2881;           90   
     280;   261.1634;          109   
     281;   262.0387;          113   
     282;   262.9140;           93   
     283;   263.7892;          121   
     284;   264.6645;          111   
     285;   265.5398;           99   
     286;   266.4151;           86   
     287;   267.2903;           94   
     288;   268.1656;          104   
     289;   269.0409;           86   
     290;   269.9162;           90   
     291;   270.7914;           93   
     292;   271.6667;           87   
     293;   272.5420;          103   
     294;   273.4173;           99   
     295;   274.2925;           99   
     296;   275.1678;          107   
     297;   276.0431;           97   
     298;   276.9184;           98   
     299;   277.7936;           85   
     300;   278.6689;           81   
     301;   279.5442;           90   
     302;   280.4195;          100   
     303;   281.2947;          102   
     304;   282.1700;          109   
     305;   283.0453;           91   
     306;   283.9206;          121   
     307;   284.7958;           93   
     308;   285.6711;           80   
     309;   286.5464;           66   
     310;   287.4217;          103   
     311;   288.2969;           89   
     312;   289.1722;           79   
     313;   290.0475;           79   
     314;   290.9228;           72   
     315;   291.7980;           92   
     316;   292.6733;          100   
     317;   293.5486;           89   
     318;   294.4239;           95   
     319;   295.2991;           82   
     320;   296.1744;           84   
     321;   297.0497;           77   
     322;   297.9250;           73   
     323;   298.8002;          126   
     324;   299.6755;          124   
     325;   300.5508;           93   
     326;   301.4261;           73   
     327;   302.3013;           79   
     328;   303.1766;           79   
     329;   304.0519;           85   
     330;   304.9272;           74   
     331;   305.8024;           80   
     332;   306.6777;           76   
     333;   307.5530;           87   
     334;   308.4283;           71   
     335;   309.3035;           66   
     336;   310.1788;           67   
     337;   311.0541;           64   
     338;   311.9294;           65   
     339;   312.8046;           82   
     340;   313.6799;           81   
     341;   314.5552;           72   
     342;   315.4305;           72   
     343;   316.3057;           78   
     344;   317.1810;           65   
     345;   318.0563;           73   
     346;   318.9316;           89   
     347;   319.8068;           73   
     348;   320.6821;           64   
     349;   321.5574;           85   
     350;   322.4327;           74   
     351;   323.3079;           60   
     352;   324.1832;           58   
     353;   325.0585;           60   
     354;   325.9338;           81   
     355;   326.8090;           69   
     356;   327.6843;           89   
     357;   328.5596;           78   
     358;   329.4349;           64   
     359;   330.3101;           69   
     360;   331.1854;           61   
     361;   332.0607;           77   
     362;   332.9360;           51   
     363;   333.8112;           79   
     364;   334.6865;           67   
     365;   335.5618;           66   
     366;   336.4371;           61   
     367;   337.3123;           65   
     368;   338.1876;           66   
     369;   339.0629;           66   
     370;   339.9382;           65   
     371;   340.8134;           80   
     372;   341.6887;           68   
     373;   342.5640;          103   
     374;   343.4393;           89   
     375;   344.3145;           61   
     376;   345.1898;           63   
     377;   346.0651;           61   
     378;   346.9404;           70   
     379;   347.8156;           63   
     380;   348.6909;           70   
     381;   349.5662;           55   
     382;   350.4415;           52   
     383;   351.3167;           66   
     384;   352.1920;           55   
     385;   353.0673;           44   
     386;   353.9426;           62   
     387;   354.8178;           56   
     388;   355.6931;          116   
     389;   356.5684;          147   
     390;   357.4437;          102   
     391;   358.3189;           71   
     392;   359.1942;           67   
     393;   360.0695;           44   
     394;   360.9448;           53   
     395;   361.8200;           39   
     396;   362.6953;           52   
     397;   363.5706;           47   
     398;   364.4459;           56   
     399;   365.3211;           59   
     400;   366.1964;           55   
     401;   367.0717;           71   
     402;   367.9470;           68   
     403;   368.8222;           34   
     404;   369.6975;           51   
     405;   370.5728;           41   
     406;   371.4481;           51   
     407;   372.3233;           57   
     408;   373.1986;           50   
     409;   374.0739;           44   
     410;   374.9492;           46   
     411;   375.8244;           39   
     412;   376.6997;           50   
     413;   377.5750;           35   
     414;   378.4503;           44   
     415;   379.3255;           37   
     416;   380.2008;           46   
     417;   381.0761;           46   
     418;   381.9514;           60   
     419;   382.8266;           56   
     420;   383.7019;           51   
     421;   384.5772;           48   
     422;   385.4525;           35   
     423;   386.3277;           34   
     424;   387.2030;           38   
     425;   388.0783;           45   
     426;   388.9536;           54   
     427;   389.8288;           67   
     428;   390.7041;           45   
     429;   391.5794;           55   
     430;   392.4547;           29   
     431;   393.3299;           50   
     432;   394.2052;           55   
     433;   395.0805;           49   
     434;   395.9558;           44   
     435;   396.8310;           47   
     436;   397.7063;           40   
     437;   398.5816;           43   
     438;   399.4569;           47   
     439;   400.3321;           54   
     440;   401.2074;           50   
     441;   402.0827;           42   
     442;   402.9580;           50   
     443;   403.8332;           42   
     444;   404.7085;           49   
     445;   405.5838;           45   
     446;   406.4591;           43   
     447;   407.3343;           44   
     448;   408.2096;           39   
     449;   409.0849;           53   
     450;   409.9602;           49   
     451;   410.8354;           38   
     452;   411.7107;           36   
     453;   412.5860;           45   
     454;   413.4613;           37   
     455;   414.3365;           57   
     456;   415.2118;           45   
     457;   416.0871;           39   
     458;   416.9624;           21   
     459;   417.8376;           40   
     460;   418.7129;           46   
     461;   419.5882;           53   
     462;   420.4635;           42   
     463;   421.3387;           51   
     464;   422.2140;           40   
     465;   423.0893;           30   
     466;   423.9646;           37   
     467;   424.8398;           41   
     468;   425.7151;           29   
     469;   426.5904;           39   
     470;   427.4657;           39   
     471;   428.3409;           38   
     472;   429.2162;           44   
     473;   430.0915;           44   
     474;   430.9668;           33   
     475;   431.8420;           46   
     476;   432.7173;           33   
     477;   433.5926;           43   
     478;   434.4679;           39   
     479;   435.3431;           39   
     480;   436.2184;           53   
     481;   437.0937;           40   
     482;   437.9690;           61   
     483;   438.8442;           31   
     484;   439.7195;           31   
     485;   440.5948;           36   
     486;   441.4701;           48   
     487;   442.3453;           32   
     488;   443.2206;           42   
     489;   444.0959;           34   
     490;   444.9712;           35   
     491;   445.8464;           40   
     492;   446.7217;           48   
     493;   447.5970;           39   
     494;   448.4723;           34   
     495;   449.3475;           36   
     496;   450.2228;           37   
     497;   451.0981;           40   
     498;   451.9734;           43   
     499;   452.8486;           43   
     500;   453.7239;           43   
     501;   454.5992;           38   
     502;   455.4745;           37   
     503;   456.3497;           24   
     504;   457.2250;           42   
     505;   458.1003;           43   
     506;   458.9756;           34   
     507;   459.8508;           40   
     508;   460.7261;           30   
     509;   461.6014;           42   
     510;   462.4767;           27   
     511;   463.3519;           28   
     512;   464.2272;           35   
