Kanal;   Energie(keV); Impulse
       1;    16.9617;          532   
       2;    17.8370;          539   
       3;    18.7122;          524   
       4;    19.5875;          484   
       5;    20.4628;          491   
       6;    21.3381;          473   
       7;    22.2133;          446   
       8;    23.0886;          441   
       9;    23.9639;          438   
      10;    24.8392;          422   
      11;    25.7144;          361   
      12;    26.5897;          425   
      13;    27.4650;          375   
      14;    28.3403;          398   
      15;    29.2155;          396   
      16;    30.0908;          416   
      17;    30.9661;          323   
      18;    31.8414;          370   
      19;    32.7166;          359   
      20;    33.5919;          364   
      21;    34.4672;          356   
      22;    35.3425;          347   
      23;    36.2177;          394   
      24;    37.0930;          358   
      25;    37.9683;          350   
      26;    38.8436;          368   
      27;    39.7188;          365   
      28;    40.5941;          341   
      29;    41.4694;          375   
      30;    42.3447;          393   
      31;    43.2199;          369   
      32;    44.0952;          336   
      33;    44.9705;          336   
      34;    45.8458;          318   
      35;    46.7210;          304   
      36;    47.5963;          391   
      37;    48.4716;          428   
      38;    49.3469;          347   
      39;    50.2221;          299   
      40;    51.0974;          290   
      41;    51.9727;          272   
      42;    52.8480;          302   
      43;    53.7232;          292   
      44;    54.5985;          291   
      45;    55.4738;          291   
      46;    56.3491;          288   
      47;    57.2243;          285   
      48;    58.0996;          283   
      49;    58.9749;          275   
      50;    59.8502;          291   
      51;    60.7254;          305   
      52;    61.6007;          289   
      53;    62.4760;          343   
      54;    63.3513;          281   
      55;    64.2265;          305   
      56;    65.1018;          324   
      57;    65.9771;          329   
      58;    66.8524;          324   
      59;    67.7276;          325   
      60;    68.6029;          337   
      61;    69.4782;          357   
      62;    70.3535;          381   
      63;    71.2287;          366   
      64;    72.1040;          367   
      65;    72.9793;          409   
      66;    73.8546;          416   
      67;    74.7298;          618   
      68;    75.6051;          834   
      69;    76.4804;          711   
      70;    77.3557;         1046   
      71;    78.2309;         1064   
      72;    79.1062;          536   
      73;    79.9815;          430   
      74;    80.8568;          409   
      75;    81.7320;          422   
      76;    82.6073;          450   
      77;    83.4826;          429   
      78;    84.3579;          463   
      79;    85.2331;          521   
      80;    86.1084;          547   
      81;    86.9837;          858   
      82;    87.8590;          997   
      83;    88.7342;          734   
      84;    89.6095;          653   
      85;    90.4848;          630   
      86;    91.3601;          613   
      87;    92.2353;          507   
      88;    93.1106;          512   
      89;    93.9859;          495   
      90;    94.8612;          529   
      91;    95.7364;          533   
      92;    96.6117;          494   
      93;    97.4870;          511   
      94;    98.3623;          560   
      95;    99.2375;          544   
      96;   100.1128;          543   
      97;   100.9881;          547   
      98;   101.8634;          559   
      99;   102.7386;          571   
     100;   103.6139;          576   
     101;   104.4892;          562   
     102;   105.3645;          531   
     103;   106.2397;          532   
     104;   107.1150;          565   
     105;   107.9903;          565   
     106;   108.8656;          599   
     107;   109.7408;          588   
     108;   110.6161;          587   
     109;   111.4914;          579   
     110;   112.3667;          562   
     111;   113.2419;          604   
     112;   114.1172;          629   
     113;   114.9925;          549   
     114;   115.8678;          608   
     115;   116.7430;          557   
     116;   117.6183;          589   
     117;   118.4936;          681   
     118;   119.3689;          575   
     119;   120.2441;          582   
     120;   121.1194;          612   
     121;   121.9947;          555   
     122;   122.8700;          645   
     123;   123.7452;         2025   
     124;   124.6205;         6916   
     125;   125.4958;         5664   
     126;   126.3711;         1270   
     127;   127.2463;          516   
     128;   128.1216;          470   
     129;   128.9969;          432   
     130;   129.8722;          449   
     131;   130.7474;          409   
     132;   131.6227;          441   
     133;   132.4980;          420   
     134;   133.3733;          423   
     135;   134.2485;          451   
     136;   135.1238;          415   
     137;   135.9991;          468   
     138;   136.8744;          443   
     139;   137.7496;          404   
     140;   138.6249;          391   
     141;   139.5002;          373   
     142;   140.3755;          462   
     143;   141.2507;          407   
     144;   142.1260;          376   
     145;   143.0013;          429   
     146;   143.8766;          396   
     147;   144.7518;          427   
     148;   145.6271;          403   
     149;   146.5024;          416   
     150;   147.3777;          429   
     151;   148.2529;          424   
     152;   149.1282;          413   
     153;   150.0035;          451   
     154;   150.8788;          441   
     155;   151.7540;          474   
     156;   152.6293;          477   
     157;   153.5046;          461   
     158;   154.3799;          466   
     159;   155.2551;          420   
     160;   156.1304;          471   
     161;   157.0057;          447   
     162;   157.8810;          406   
     163;   158.7562;          450   
     164;   159.6315;          391   
     165;   160.5068;          407   
     166;   161.3821;          414   
     167;   162.2573;          427   
     168;   163.1326;          398   
     169;   164.0079;          406   
     170;   164.8832;          413   
     171;   165.7584;          417   
     172;   166.6337;          448   
     173;   167.5090;          403   
     174;   168.3843;          384   
     175;   169.2595;          381   
     176;   170.1348;          372   
     177;   171.0101;          363   
     178;   171.8854;          370   
     179;   172.7606;          386   
     180;   173.6359;          377   
     181;   174.5112;          391   
     182;   175.3865;          367   
     183;   176.2617;          412   
     184;   177.1370;          365   
     185;   178.0123;          356   
     186;   178.8876;          379   
     187;   179.7628;          344   
     188;   180.6381;          365   
     189;   181.5134;          338   
     190;   182.3887;          377   
     191;   183.2639;          364   
     192;   184.1392;          399   
     193;   185.0145;          382   
     194;   185.8898;          371   
     195;   186.7650;          365   
     196;   187.6403;          380   
     197;   188.5156;          367   
     198;   189.3909;          334   
     199;   190.2661;          327   
     200;   191.1414;          344   
     201;   192.0167;          344   
     202;   192.8920;          359   
     203;   193.7672;          370   
     204;   194.6425;          338   
     205;   195.5178;          361   
     206;   196.3931;          394   
     207;   197.2683;          373   
     208;   198.1436;          374   
     209;   199.0189;          362   
     210;   199.8942;          321   
     211;   200.7694;          317   
     212;   201.6447;          322   
     213;   202.5200;          342   
     214;   203.3953;          318   
     215;   204.2705;          316   
     216;   205.1458;          328   
     217;   206.0211;          313   
     218;   206.8964;          286   
     219;   207.7716;          316   
     220;   208.6469;          318   
     221;   209.5222;          293   
     222;   210.3975;          303   
     223;   211.2727;          352   
     224;   212.1480;          328   
     225;   213.0233;          317   
     226;   213.8986;          333   
     227;   214.7738;          329   
     228;   215.6491;          317   
     229;   216.5244;          312   
     230;   217.3997;          328   
     231;   218.2749;          324   
     232;   219.1502;          305   
     233;   220.0255;          284   
     234;   220.9008;          296   
     235;   221.7760;          292   
     236;   222.6513;          296   
     237;   223.5266;          302   
     238;   224.4019;          298   
     239;   225.2771;          291   
     240;   226.1524;          268   
     241;   227.0277;          254   
     242;   227.9030;          281   
     243;   228.7782;          276   
     244;   229.6535;          275   
     245;   230.5288;          293   
     246;   231.4041;          251   
     247;   232.2793;          296   
     248;   233.1546;          270   
     249;   234.0299;          267   
     250;   234.9052;          261   
     251;   235.7804;          223   
     252;   236.6557;          255   
     253;   237.5310;          254   
     254;   238.4063;          231   
     255;   239.2815;          249   
     256;   240.1568;          225   
     257;   241.0321;          268   
     258;   241.9074;          271   
     259;   242.7826;          301   
     260;   243.6579;          291   
     261;   244.5332;          262   
     262;   245.4085;          245   
     263;   246.2837;          254   
     264;   247.1590;          328   
     265;   248.0343;          994   
     266;   248.9096;         1744   
     267;   249.7848;          866   
     268;   250.6601;          263   
     269;   251.5354;          238   
     270;   252.4107;          240   
     271;   253.2859;          247   
     272;   254.1612;          213   
     273;   255.0365;          209   
     274;   255.9118;          217   
     275;   256.7870;          211   
     276;   257.6623;          176   
     277;   258.5376;          201   
     278;   259.4129;          218   
     279;   260.2881;          224   
     280;   261.1634;          208   
     281;   262.0387;          208   
     282;   262.9140;          196   
     283;   263.7892;          188   
     284;   264.6645;          212   
     285;   265.5398;          191   
     286;   266.4151;          202   
     287;   267.2903;          205   
     288;   268.1656;          191   
     289;   269.0409;          206   
     290;   269.9162;          164   
     291;   270.7914;          194   
     292;   271.6667;          205   
     293;   272.5420;          203   
     294;   273.4173;          206   
     295;   274.2925;          213   
     296;   275.1678;          214   
     297;   276.0431;          186   
     298;   276.9184;          182   
     299;   277.7936;          185   
     300;   278.6689;          182   
     301;   279.5442;          169   
     302;   280.4195;          165   
     303;   281.2947;          187   
     304;   282.1700;          194   
     305;   283.0453;          167   
     306;   283.9206;          169   
     307;   284.7958;          175   
     308;   285.6711;          173   
     309;   286.5464;          164   
     310;   287.4217;          188   
     311;   288.2969;          175   
     312;   289.1722;          166   
     313;   290.0475;          150   
     314;   290.9228;          156   
     315;   291.7980;          170   
     316;   292.6733;          172   
     317;   293.5486;          145   
     318;   294.4239;          176   
     319;   295.2991;          148   
     320;   296.1744;          158   
     321;   297.0497;          156   
     322;   297.9250;          152   
     323;   298.8002;          177   
     324;   299.6755;          206   
     325;   300.5508;          236   
     326;   301.4261;          214   
     327;   302.3013;          169   
     328;   303.1766;          158   
     329;   304.0519;          166   
     330;   304.9272;          135   
     331;   305.8024;          153   
     332;   306.6777;          188   
     333;   307.5530;          157   
     334;   308.4283;          132   
     335;   309.3035;          127   
     336;   310.1788;          137   
     337;   311.0541;          132   
     338;   311.9294;          140   
     339;   312.8046;          131   
     340;   313.6799;          129   
     341;   314.5552;          157   
     342;   315.4305;          170   
     343;   316.3057;          158   
     344;   317.1810;          149   
     345;   318.0563;          158   
     346;   318.9316;          123   
     347;   319.8068;          143   
     348;   320.6821;          148   
     349;   321.5574;          141   
     350;   322.4327;          144   
     351;   323.3079;          167   
     352;   324.1832;          117   
     353;   325.0585;          123   
     354;   325.9338;          144   
     355;   326.8090;          140   
     356;   327.6843;          131   
     357;   328.5596;          148   
     358;   329.4349;          166   
     359;   330.3101;          155   
     360;   331.1854;          144   
     361;   332.0607;          112   
     362;   332.9360;          148   
     363;   333.8112;          132   
     364;   334.6865;          133   
     365;   335.5618;          130   
     366;   336.4371;          108   
     367;   337.3123;          141   
     368;   338.1876;          108   
     369;   339.0629;          150   
     370;   339.9382;          109   
     371;   340.8134;          131   
     372;   341.6887;          140   
     373;   342.5640;          130   
     374;   343.4393;          134   
     375;   344.3145;          136   
     376;   345.1898;          124   
     377;   346.0651;          134   
     378;   346.9404;          188   
     379;   347.8156;          720   
     380;   348.6909;         3048   
     381;   349.5662;         3766   
     382;   350.4415;         1219   
     383;   351.3167;          219   
     384;   352.1920;          123   
     385;   353.0673;          128   
     386;   353.9426;          106   
     387;   354.8178;          120   
     388;   355.6931;          109   
     389;   356.5684;          141   
     390;   357.4437;          144   
     391;   358.3189;          115   
     392;   359.1942;           96   
     393;   360.0695;           95   
     394;   360.9448;          101   
     395;   361.8200;          107   
     396;   362.6953;          111   
     397;   363.5706;           99   
     398;   364.4459;          100   
     399;   365.3211;          104   
     400;   366.1964;          119   
     401;   367.0717;          106   
     402;   367.9470;          102   
     403;   368.8222;          120   
     404;   369.6975;           88   
     405;   370.5728;          101   
     406;   371.4481;          119   
     407;   372.3233;          169   
     408;   373.1986;          227   
     409;   374.0739;          127   
     410;   374.9492;          119   
     411;   375.8244;          129   
     412;   376.6997;           87   
     413;   377.5750;           88   
     414;   378.4503;          102   
     415;   379.3255;           98   
     416;   380.2008;           96   
     417;   381.0761;           97   
     418;   381.9514;          106   
     419;   382.8266;           96   
     420;   383.7019;           98   
     421;   384.5772;           98   
     422;   385.4525;           96   
     423;   386.3277;           86   
     424;   387.2030;           84   
     425;   388.0783;          113   
     426;   388.9536;           86   
     427;   389.8288;          110   
     428;   390.7041;          100   
     429;   391.5794;           92   
     430;   392.4547;          112   
     431;   393.3299;           95   
     432;   394.2052;          115   
     433;   395.0805;           96   
     434;   395.9558;           87   
     435;   396.8310;          102   
     436;   397.7063;           90   
     437;   398.5816;          105   
     438;   399.4569;           92   
     439;   400.3321;           81   
     440;   401.2074;           86   
     441;   402.0827;           93   
     442;   402.9580;           91   
     443;   403.8332;           97   
     444;   404.7085;          106   
     445;   405.5838;           71   
     446;   406.4591;           86   
     447;   407.3343;           76   
     448;   408.2096;           97   
     449;   409.0849;           88   
     450;   409.9602;           92   
     451;   410.8354;          100   
     452;   411.7107;           86   
     453;   412.5860;           95   
     454;   413.4613;           86   
     455;   414.3365;           81   
     456;   415.2118;          158   
     457;   416.0871;          283   
     458;   416.9624;          360   
     459;   417.8376;          162   
     460;   418.7129;           85   
     461;   419.5882;           62   
     462;   420.4635;           90   
     463;   421.3387;           97   
     464;   422.2140;           93   
     465;   423.0893;           88   
     466;   423.9646;           84   
     467;   424.8398;           91   
     468;   425.7151;           79   
     469;   426.5904;           85   
     470;   427.4657;           78   
     471;   428.3409;           76   
     472;   429.2162;           82   
     473;   430.0915;           73   
     474;   430.9668;           94   
     475;   431.8420;           78   
     476;   432.7173;           89   
     477;   433.5926;           74   
     478;   434.4679;           82   
     479;   435.3431;           92   
     480;   436.2184;           70   
     481;   437.0937;           79   
     482;   437.9690;           86   
     483;   438.8442;           84   
     484;   439.7195;           71   
     485;   440.5948;           62   
     486;   441.4701;           82   
     487;   442.3453;           80   
     488;   443.2206;           80   
     489;   444.0959;           82   
     490;   444.9712;           93   
     491;   445.8464;           90   
     492;   446.7217;           98   
     493;   447.5970;           91   
     494;   448.4723;          181   
     495;   449.3475;          380   
     496;   450.2228;          377   
     497;   451.0981;          171   
     498;   451.9734;          103   
     499;   452.8486;           87   
     500;   453.7239;           81   
     501;   454.5992;           77   
     502;   455.4745;           89   
     503;   456.3497;           79   
     504;   457.2250;           83   
     505;   458.1003;           78   
     506;   458.9756;           71   
     507;   459.8508;           82   
     508;   460.7261;           75   
     509;   461.6014;           65   
     510;   462.4767;           68   
     511;   463.3519;           82   
     512;   464.2272;           74   
