Kanal;   Energie(keV); Impulse
       1;    16.9617;        83996   
       2;    17.8370;        54306   
       3;    18.7122;        35279   
       4;    19.5875;        22906   
       5;    20.4628;        15074   
       6;    21.3381;         9965   
       7;    22.2133;         6604   
       8;    23.0886;         4447   
       9;    23.9639;         3096   
      10;    24.8392;         2206   
      11;    25.7144;         1704   
      12;    26.5897;         1300   
      13;    27.4650;         1117   
      14;    28.3403;          913   
      15;    29.2155;          790   
      16;    30.0908;          727   
      17;    30.9661;          688   
      18;    31.8414;          602   
      19;    32.7166;          583   
      20;    33.5919;          573   
      21;    34.4672;          554   
      22;    35.3425;          524   
      23;    36.2177;          497   
      24;    37.0930;          455   
      25;    37.9683;          484   
      26;    38.8436;          442   
      27;    39.7188;          384   
      28;    40.5941;          395   
      29;    41.4694;          368   
      30;    42.3447;          387   
      31;    43.2199;          371   
      32;    44.0952;          344   
      33;    44.9705;          333   
      34;    45.8458;          341   
      35;    46.7210;          311   
      36;    47.5963;          301   
      37;    48.4716;          325   
      38;    49.3469;          278   
      39;    50.2221;          263   
      40;    51.0974;          277   
      41;    51.9727;          272   
      42;    52.8480;          296   
      43;    53.7232;          272   
      44;    54.5985;          280   
      45;    55.4738;          274   
      46;    56.3491;          237   
      47;    57.2243;          257   
      48;    58.0996;          211   
      49;    58.9749;          212   
      50;    59.8502;          231   
      51;    60.7254;          227   
      52;    61.6007;          214   
      53;    62.4760;          210   
      54;    63.3513;          212   
      55;    64.2265;          215   
      56;    65.1018;          223   
      57;    65.9771;          213   
      58;    66.8524;          209   
      59;    67.7276;          205   
      60;    68.6029;          191   
      61;    69.4782;          198   
      62;    70.3535;          185   
      63;    71.2287;          190   
      64;    72.1040;          209   
      65;    72.9793;          181   
      66;    73.8546;          181   
      67;    74.7298;          179   
      68;    75.6051;          187   
      69;    76.4804;          165   
      70;    77.3557;          148   
      71;    78.2309;          160   
      72;    79.1062;          163   
      73;    79.9815;          186   
      74;    80.8568;          170   
      75;    81.7320;          164   
      76;    82.6073;          167   
      77;    83.4826;          169   
      78;    84.3579;          150   
      79;    85.2331;          146   
      80;    86.1084;          145   
      81;    86.9837;          144   
      82;    87.8590;          150   
      83;    88.7342;          143   
      84;    89.6095;          158   
      85;    90.4848;          131   
      86;    91.3601;          138   
      87;    92.2353;          159   
      88;    93.1106;          127   
      89;    93.9859;          148   
      90;    94.8612;          149   
      91;    95.7364;          134   
      92;    96.6117;          127   
      93;    97.4870;          137   
      94;    98.3623;          131   
      95;    99.2375;          139   
      96;   100.1128;          140   
      97;   100.9881;          122   
      98;   101.8634;          151   
      99;   102.7386;          146   
     100;   103.6139;          116   
     101;   104.4892;          119   
     102;   105.3645;          114   
     103;   106.2397;          137   
     104;   107.1150;          131   
     105;   107.9903;          139   
     106;   108.8656;          114   
     107;   109.7408;          137   
     108;   110.6161;          133   
     109;   111.4914;          109   
     110;   112.3667;          126   
     111;   113.2419;          120   
     112;   114.1172;          103   
     113;   114.9925;          131   
     114;   115.8678;          130   
     115;   116.7430;          115   
     116;   117.6183;          128   
     117;   118.4936;          126   
     118;   119.3689;          137   
     119;   120.2441;          127   
     120;   121.1194;          103   
     121;   121.9947;          112   
     122;   122.8700;           94   
     123;   123.7452;          103   
     124;   124.6205;          100   
     125;   125.4958;          112   
     126;   126.3711;          108   
     127;   127.2463;          113   
     128;   128.1216;          118   
     129;   128.9969;          105   
     130;   129.8722;          119   
     131;   130.7474;          111   
     132;   131.6227;          113   
     133;   132.4980;          104   
     134;   133.3733;          107   
     135;   134.2485;           99   
     136;   135.1238;          108   
     137;   135.9991;          128   
     138;   136.8744;          112   
     139;   137.7496;          102   
     140;   138.6249;           94   
     141;   139.5002;          110   
     142;   140.3755;           95   
     143;   141.2507;          104   
     144;   142.1260;           92   
     145;   143.0013;          102   
     146;   143.8766;           91   
     147;   144.7518;          109   
     148;   145.6271;           94   
     149;   146.5024;           87   
     150;   147.3777;          109   
     151;   148.2529;           89   
     152;   149.1282;           99   
     153;   150.0035;          100   
     154;   150.8788;          108   
     155;   151.7540;           95   
     156;   152.6293;           98   
     157;   153.5046;           96   
     158;   154.3799;          101   
     159;   155.2551;          110   
     160;   156.1304;          102   
     161;   157.0057;          109   
     162;   157.8810;           97   
     163;   158.7562;           96   
     164;   159.6315;           94   
     165;   160.5068;          112   
     166;   161.3821;           85   
     167;   162.2573;          100   
     168;   163.1326;           86   
     169;   164.0079;          103   
     170;   164.8832;           92   
     171;   165.7584;          101   
     172;   166.6337;           95   
     173;   167.5090;           98   
     174;   168.3843;           87   
     175;   169.2595;           98   
     176;   170.1348;           97   
     177;   171.0101;           85   
     178;   171.8854;           88   
     179;   172.7606;           90   
     180;   173.6359;           92   
     181;   174.5112;           70   
     182;   175.3865;          113   
     183;   176.2617;           97   
     184;   177.1370;           81   
     185;   178.0123;           81   
     186;   178.8876;           89   
     187;   179.7628;           85   
     188;   180.6381;           95   
     189;   181.5134;           80   
     190;   182.3887;           91   
     191;   183.2639;           86   
     192;   184.1392;           89   
     193;   185.0145;           81   
     194;   185.8898;           77   
     195;   186.7650;          108   
     196;   187.6403;           90   
     197;   188.5156;           79   
     198;   189.3909;           65   
     199;   190.2661;           90   
     200;   191.1414;           79   
     201;   192.0167;           74   
     202;   192.8920;           81   
     203;   193.7672;           81   
     204;   194.6425;           72   
     205;   195.5178;           73   
     206;   196.3931;           75   
     207;   197.2683;           74   
     208;   198.1436;           62   
     209;   199.0189;           83   
     210;   199.8942;           83   
     211;   200.7694;           77   
     212;   201.6447;           71   
     213;   202.5200;           89   
     214;   203.3953;           71   
     215;   204.2705;           96   
     216;   205.1458;           70   
     217;   206.0211;           74   
     218;   206.8964;           86   
     219;   207.7716;           90   
     220;   208.6469;           59   
     221;   209.5222;           74   
     222;   210.3975;           72   
     223;   211.2727;           82   
     224;   212.1480;           66   
     225;   213.0233;           68   
     226;   213.8986;           73   
     227;   214.7738;           68   
     228;   215.6491;           64   
     229;   216.5244;           64   
     230;   217.3997;           77   
     231;   218.2749;           63   
     232;   219.1502;           69   
     233;   220.0255;           76   
     234;   220.9008;           58   
     235;   221.7760;           61   
     236;   222.6513;           67   
     237;   223.5266;           68   
     238;   224.4019;           63   
     239;   225.2771;           54   
     240;   226.1524;           45   
     241;   227.0277;           51   
     242;   227.9030;           65   
     243;   228.7782;           64   
     244;   229.6535;           63   
     245;   230.5288;           61   
     246;   231.4041;           56   
     247;   232.2793;           65   
     248;   233.1546;           54   
     249;   234.0299;           52   
     250;   234.9052;           44   
     251;   235.7804;           47   
     252;   236.6557;           58   
     253;   237.5310;           47   
     254;   238.4063;           48   
     255;   239.2815;           42   
     256;   240.1568;           44   
     257;   241.0321;           55   
     258;   241.9074;           41   
     259;   242.7826;           40   
     260;   243.6579;           46   
     261;   244.5332;           52   
     262;   245.4085;           41   
     263;   246.2837;           45   
     264;   247.1590;           44   
     265;   248.0343;           46   
     266;   248.9096;           42   
     267;   249.7848;           42   
     268;   250.6601;           47   
     269;   251.5354;           53   
     270;   252.4107;           44   
     271;   253.2859;           42   
     272;   254.1612;           57   
     273;   255.0365;           41   
     274;   255.9118;           34   
     275;   256.7870;           44   
     276;   257.6623;           38   
     277;   258.5376;           48   
     278;   259.4129;           38   
     279;   260.2881;           40   
     280;   261.1634;           42   
     281;   262.0387;           37   
     282;   262.9140;           41   
     283;   263.7892;           34   
     284;   264.6645;           32   
     285;   265.5398;           40   
     286;   266.4151;           37   
     287;   267.2903;           34   
     288;   268.1656;           43   
     289;   269.0409;           32   
     290;   269.9162;           34   
     291;   270.7914;           34   
     292;   271.6667;           33   
     293;   272.5420;           45   
     294;   273.4173;           34   
     295;   274.2925;           30   
     296;   275.1678;           32   
     297;   276.0431;           39   
     298;   276.9184;           25   
     299;   277.7936;           18   
     300;   278.6689;           34   
     301;   279.5442;           42   
     302;   280.4195;           38   
     303;   281.2947;           45   
     304;   282.1700;           33   
     305;   283.0453;           43   
     306;   283.9206;           33   
     307;   284.7958;           32   
     308;   285.6711;           33   
     309;   286.5464;           34   
     310;   287.4217;           33   
     311;   288.2969;           23   
     312;   289.1722;           27   
     313;   290.0475;           25   
     314;   290.9228;           27   
     315;   291.7980;           32   
     316;   292.6733;           33   
     317;   293.5486;           35   
     318;   294.4239;           26   
     319;   295.2991;           23   
     320;   296.1744;           27   
     321;   297.0497;           27   
     322;   297.9250;           28   
     323;   298.8002;           21   
     324;   299.6755;           25   
     325;   300.5508;           35   
     326;   301.4261;           21   
     327;   302.3013;           27   
     328;   303.1766;           29   
     329;   304.0519;           22   
     330;   304.9272;           31   
     331;   305.8024;           21   
     332;   306.6777;           27   
     333;   307.5530;           20   
     334;   308.4283;           26   
     335;   309.3035;           13   
     336;   310.1788;           26   
     337;   311.0541;           21   
     338;   311.9294;           31   
     339;   312.8046;           18   
     340;   313.6799;           25   
     341;   314.5552;           14   
     342;   315.4305;           18   
     343;   316.3057;           23   
     344;   317.1810;           15   
     345;   318.0563;           23   
     346;   318.9316;           27   
     347;   319.8068;           31   
     348;   320.6821;           23   
     349;   321.5574;           26   
     350;   322.4327;           25   
     351;   323.3079;           23   
     352;   324.1832;           17   
     353;   325.0585;           19   
     354;   325.9338;           25   
     355;   326.8090;           23   
     356;   327.6843;           22   
     357;   328.5596;           23   
     358;   329.4349;           17   
     359;   330.3101;           24   
     360;   331.1854;           17   
     361;   332.0607;           26   
     362;   332.9360;           27   
     363;   333.8112;           17   
     364;   334.6865;           23   
     365;   335.5618;           25   
     366;   336.4371;           16   
     367;   337.3123;           17   
     368;   338.1876;           28   
     369;   339.0629;           23   
     370;   339.9382;           19   
     371;   340.8134;           22   
     372;   341.6887;           20   
     373;   342.5640;           13   
     374;   343.4393;           28   
     375;   344.3145;           21   
     376;   345.1898;           12   
     377;   346.0651;           25   
     378;   346.9404;           19   
     379;   347.8156;           27   
     380;   348.6909;           23   
     381;   349.5662;           21   
     382;   350.4415;           13   
     383;   351.3167;           12   
     384;   352.1920;           17   
     385;   353.0673;           21   
     386;   353.9426;           22   
     387;   354.8178;           28   
     388;   355.6931;           22   
     389;   356.5684;           16   
     390;   357.4437;           23   
     391;   358.3189;            6   
     392;   359.1942;           16   
     393;   360.0695;           14   
     394;   360.9448;           22   
     395;   361.8200;           16   
     396;   362.6953;            8   
     397;   363.5706;           19   
     398;   364.4459;           16   
     399;   365.3211;           28   
     400;   366.1964;           21   
     401;   367.0717;           18   
     402;   367.9470;           24   
     403;   368.8222;           11   
     404;   369.6975;           18   
     405;   370.5728;           20   
     406;   371.4481;           17   
     407;   372.3233;           11   
     408;   373.1986;           20   
     409;   374.0739;           21   
     410;   374.9492;           17   
     411;   375.8244;           16   
     412;   376.6997;           15   
     413;   377.5750;           17   
     414;   378.4503;           22   
     415;   379.3255;           14   
     416;   380.2008;           17   
     417;   381.0761;           17   
     418;   381.9514;           20   
     419;   382.8266;           16   
     420;   383.7019;           18   
     421;   384.5772;           18   
     422;   385.4525;           20   
     423;   386.3277;           16   
     424;   387.2030;           23   
     425;   388.0783;           14   
     426;   388.9536;           16   
     427;   389.8288;           21   
     428;   390.7041;           21   
     429;   391.5794;           26   
     430;   392.4547;           14   
     431;   393.3299;           20   
     432;   394.2052;           23   
     433;   395.0805;           13   
     434;   395.9558;           25   
     435;   396.8310;           19   
     436;   397.7063;           17   
     437;   398.5816;           24   
     438;   399.4569;           11   
     439;   400.3321;           21   
     440;   401.2074;           21   
     441;   402.0827;           18   
     442;   402.9580;           12   
     443;   403.8332;           24   
     444;   404.7085;           17   
     445;   405.5838;           17   
     446;   406.4591;           16   
     447;   407.3343;           19   
     448;   408.2096;           23   
     449;   409.0849;           13   
     450;   409.9602;           20   
     451;   410.8354;           17   
     452;   411.7107;           24   
     453;   412.5860;           16   
     454;   413.4613;           19   
     455;   414.3365;           22   
     456;   415.2118;           11   
     457;   416.0871;           20   
     458;   416.9624;           18   
     459;   417.8376;           18   
     460;   418.7129;           17   
     461;   419.5882;           17   
     462;   420.4635;           17   
     463;   421.3387;           17   
     464;   422.2140;           17   
     465;   423.0893;           12   
     466;   423.9646;           17   
     467;   424.8398;           16   
     468;   425.7151;           23   
     469;   426.5904;           13   
     470;   427.4657;           14   
     471;   428.3409;           12   
     472;   429.2162;           21   
     473;   430.0915;           13   
     474;   430.9668;           14   
     475;   431.8420;           14   
     476;   432.7173;           17   
     477;   433.5926;           18   
     478;   434.4679;           13   
     479;   435.3431;           14   
     480;   436.2184;           17   
     481;   437.0937;           18   
     482;   437.9690;           16   
     483;   438.8442;           19   
     484;   439.7195;           22   
     485;   440.5948;           19   
     486;   441.4701;           23   
     487;   442.3453;           24   
     488;   443.2206;           30   
     489;   444.0959;           16   
     490;   444.9712;           15   
     491;   445.8464;           20   
     492;   446.7217;           11   
     493;   447.5970;           20   
     494;   448.4723;           15   
     495;   449.3475;           16   
     496;   450.2228;           18   
     497;   451.0981;           14   
     498;   451.9734;           17   
     499;   452.8486;           20   
     500;   453.7239;           16   
     501;   454.5992;           14   
     502;   455.4745;            9   
     503;   456.3497;           14   
     504;   457.2250;           18   
     505;   458.1003;           19   
     506;   458.9756;           20   
     507;   459.8508;           10   
     508;   460.7261;           16   
     509;   461.6014;           21   
     510;   462.4767;           13   
     511;   463.3519;           21   
     512;   464.2272;           17   
