Kanal;   Energie(keV); Impulse
       1;    16.9617;      1770237   
       2;    17.8370;      1587092   
       3;    18.7122;      1424765   
       4;    19.5875;      1277962   
       5;    20.4628;      1146115   
       6;    21.3381;      1020520   
       7;    22.2133;       900631   
       8;    23.0886;       794557   
       9;    23.9639;       693972   
      10;    24.8392;       608761   
      11;    25.7144;       526716   
      12;    26.5897;       457547   
      13;    27.4650;       394360   
      14;    28.3403;       339271   
      15;    29.2155;       291340   
      16;    30.0908;       250416   
      17;    30.9661;       212995   
      18;    31.8414;       182124   
      19;    32.7166;       155333   
      20;    33.5919;       132502   
      21;    34.4672;       112271   
      22;    35.3425;        95388   
      23;    36.2177;        80871   
      24;    37.0930;        68911   
      25;    37.9683;        57520   
      26;    38.8436;        48829   
      27;    39.7188;        41553   
      28;    40.5941;        34675   
      29;    41.4694;        29380   
      30;    42.3447;        24924   
      31;    43.2199;        20827   
      32;    44.0952;        16793   
      33;    44.9705;        13785   
      34;    45.8458;        12006   
      35;    46.7210;        10124   
      36;    47.5963;         8854   
      37;    48.4716;         7373   
      38;    49.3469;         6292   
      39;    50.2221;         5354   
      40;    51.0974;         4526   
      41;    51.9727;         3893   
      42;    52.8480;         3326   
      43;    53.7232;         2849   
      44;    54.5985;         2366   
      45;    55.4738;         2081   
      46;    56.3491;         1697   
      47;    57.2243;         1470   
      48;    58.0996;         1308   
      49;    58.9749;         1171   
      50;    59.8502;          961   
      51;    60.7254;          810   
      52;    61.6007;          731   
      53;    62.4760;          629   
      54;    63.3513;          565   
      55;    64.2265;          560   
      56;    65.1018;          538   
      57;    65.9771;          488   
      58;    66.8524;          384   
      59;    67.7276;          411   
      60;    68.6029;          363   
      61;    69.4782;          353   
      62;    70.3535;          323   
      63;    71.2287;          312   
      64;    72.1040;          287   
      65;    72.9793;          306   
      66;    73.8546;          288   
      67;    74.7298;          292   
      68;    75.6051;          279   
      69;    76.4804;          258   
      70;    77.3557;          234   
      71;    78.2309;          270   
      72;    79.1062;          233   
      73;    79.9815;          235   
      74;    80.8568;          247   
      75;    81.7320;          207   
      76;    82.6073;          204   
      77;    83.4826;          223   
      78;    84.3579;          225   
      79;    85.2331;          232   
      80;    86.1084;          210   
      81;    86.9837;          193   
      82;    87.8590;          220   
      83;    88.7342;          215   
      84;    89.6095;          201   
      85;    90.4848;          203   
      86;    91.3601;          199   
      87;    92.2353;          203   
      88;    93.1106;          198   
      89;    93.9859;          198   
      90;    94.8612;          202   
      91;    95.7364;          212   
      92;    96.6117;          168   
      93;    97.4870;          172   
      94;    98.3623;          193   
      95;    99.2375;          197   
      96;   100.1128;          195   
      97;   100.9881;          183   
      98;   101.8634;          177   
      99;   102.7386;          178   
     100;   103.6139;          208   
     101;   104.4892;          174   
     102;   105.3645;          182   
     103;   106.2397;          197   
     104;   107.1150;          188   
     105;   107.9903;          173   
     106;   108.8656;          194   
     107;   109.7408;          157   
     108;   110.6161;          164   
     109;   111.4914;          171   
     110;   112.3667;          161   
     111;   113.2419;          186   
     112;   114.1172;          176   
     113;   114.9925;          165   
     114;   115.8678;          177   
     115;   116.7430;          157   
     116;   117.6183;          139   
     117;   118.4936;          178   
     118;   119.3689;          159   
     119;   120.2441;          171   
     120;   121.1194;          155   
     121;   121.9947;          186   
     122;   122.8700;          185   
     123;   123.7452;          151   
     124;   124.6205;          179   
     125;   125.4958;          116   
     126;   126.3711;          161   
     127;   127.2463;          170   
     128;   128.1216;          180   
     129;   128.9969;          163   
     130;   129.8722;          137   
     131;   130.7474;          156   
     132;   131.6227;          150   
     133;   132.4980;          147   
     134;   133.3733;          143   
     135;   134.2485;          143   
     136;   135.1238;          150   
     137;   135.9991;          146   
     138;   136.8744;          145   
     139;   137.7496;          134   
     140;   138.6249;          176   
     141;   139.5002;          159   
     142;   140.3755;          158   
     143;   141.2507;          140   
     144;   142.1260;          151   
     145;   143.0013;          148   
     146;   143.8766;          167   
     147;   144.7518;          156   
     148;   145.6271;          146   
     149;   146.5024;          151   
     150;   147.3777;          165   
     151;   148.2529;          119   
     152;   149.1282;          138   
     153;   150.0035;          141   
     154;   150.8788;          160   
     155;   151.7540;          127   
     156;   152.6293;          151   
     157;   153.5046;          141   
     158;   154.3799;          168   
     159;   155.2551;          153   
     160;   156.1304;          162   
     161;   157.0057;          150   
     162;   157.8810;          149   
     163;   158.7562;          144   
     164;   159.6315;          181   
     165;   160.5068;          150   
     166;   161.3821;          137   
     167;   162.2573;          136   
     168;   163.1326;          165   
     169;   164.0079;          174   
     170;   164.8832;          159   
     171;   165.7584;          131   
     172;   166.6337;          142   
     173;   167.5090;          133   
     174;   168.3843;          122   
     175;   169.2595;          136   
     176;   170.1348;          150   
     177;   171.0101;          143   
     178;   171.8854;          162   
     179;   172.7606;          124   
     180;   173.6359;          135   
     181;   174.5112;          153   
     182;   175.3865;          138   
     183;   176.2617;          127   
     184;   177.1370;          134   
     185;   178.0123;          143   
     186;   178.8876;          149   
     187;   179.7628;          170   
     188;   180.6381;          118   
     189;   181.5134;          131   
     190;   182.3887;          141   
     191;   183.2639;          158   
     192;   184.1392;          133   
     193;   185.0145;          133   
     194;   185.8898;          148   
     195;   186.7650;          133   
     196;   187.6403;          124   
     197;   188.5156;          141   
     198;   189.3909;          146   
     199;   190.2661;          117   
     200;   191.1414;          114   
     201;   192.0167;          114   
     202;   192.8920;          126   
     203;   193.7672;          119   
     204;   194.6425;          136   
     205;   195.5178;          111   
     206;   196.3931;          121   
     207;   197.2683;          130   
     208;   198.1436;          117   
     209;   199.0189;          127   
     210;   199.8942;          130   
     211;   200.7694;          121   
     212;   201.6447;          134   
     213;   202.5200;          124   
     214;   203.3953;          119   
     215;   204.2705;          118   
     216;   205.1458;          114   
     217;   206.0211;          122   
     218;   206.8964;          119   
     219;   207.7716;          114   
     220;   208.6469;          108   
     221;   209.5222;          107   
     222;   210.3975;          123   
     223;   211.2727;          107   
     224;   212.1480;          127   
     225;   213.0233;          107   
     226;   213.8986;           96   
     227;   214.7738;          125   
     228;   215.6491;          111   
     229;   216.5244;           98   
     230;   217.3997;          101   
     231;   218.2749;          101   
     232;   219.1502;           99   
     233;   220.0255;          105   
     234;   220.9008;           86   
     235;   221.7760;          103   
     236;   222.6513;          100   
     237;   223.5266;           96   
     238;   224.4019;          106   
     239;   225.2771;           89   
     240;   226.1524;          100   
     241;   227.0277;           98   
     242;   227.9030;           99   
     243;   228.7782;           81   
     244;   229.6535;          101   
     245;   230.5288;           91   
     246;   231.4041;           73   
     247;   232.2793;           77   
     248;   233.1546;           90   
     249;   234.0299;           79   
     250;   234.9052;           91   
     251;   235.7804;           83   
     252;   236.6557;           74   
     253;   237.5310;           74   
     254;   238.4063;           69   
     255;   239.2815;           80   
     256;   240.1568;           69   
     257;   241.0321;           88   
     258;   241.9074;           77   
     259;   242.7826;           72   
     260;   243.6579;           66   
     261;   244.5332;           69   
     262;   245.4085;           72   
     263;   246.2837;           87   
     264;   247.1590;           79   
     265;   248.0343;           72   
     266;   248.9096;           81   
     267;   249.7848;           54   
     268;   250.6601;           64   
     269;   251.5354;           54   
     270;   252.4107;           73   
     271;   253.2859;           67   
     272;   254.1612;           59   
     273;   255.0365;           78   
     274;   255.9118;           59   
     275;   256.7870;           48   
     276;   257.6623;           57   
     277;   258.5376;           55   
     278;   259.4129;           63   
     279;   260.2881;           63   
     280;   261.1634;           55   
     281;   262.0387;           57   
     282;   262.9140;           45   
     283;   263.7892;           56   
     284;   264.6645;           56   
     285;   265.5398;           42   
     286;   266.4151;           49   
     287;   267.2903;           47   
     288;   268.1656;           39   
     289;   269.0409;           44   
     290;   269.9162;           62   
     291;   270.7914;           51   
     292;   271.6667;           37   
     293;   272.5420;           52   
     294;   273.4173;           39   
     295;   274.2925;           43   
     296;   275.1678;           40   
     297;   276.0431;           48   
     298;   276.9184;           44   
     299;   277.7936;           50   
     300;   278.6689;           43   
     301;   279.5442;           43   
     302;   280.4195;           40   
     303;   281.2947;           40   
     304;   282.1700;           36   
     305;   283.0453;           44   
     306;   283.9206;           38   
     307;   284.7958;           39   
     308;   285.6711;           40   
     309;   286.5464;           47   
     310;   287.4217;           39   
     311;   288.2969;           38   
     312;   289.1722;           34   
     313;   290.0475;           35   
     314;   290.9228;           42   
     315;   291.7980;           33   
     316;   292.6733;           30   
     317;   293.5486;           28   
     318;   294.4239;           37   
     319;   295.2991;           41   
     320;   296.1744;           33   
     321;   297.0497;           40   
     322;   297.9250;           38   
     323;   298.8002;           36   
     324;   299.6755;           41   
     325;   300.5508;           28   
     326;   301.4261;           26   
     327;   302.3013;           33   
     328;   303.1766;           31   
     329;   304.0519;           32   
     330;   304.9272;           32   
     331;   305.8024;           36   
     332;   306.6777;           25   
     333;   307.5530;           34   
     334;   308.4283;           34   
     335;   309.3035;           28   
     336;   310.1788;           28   
     337;   311.0541;           29   
     338;   311.9294;           35   
     339;   312.8046;           32   
     340;   313.6799;           25   
     341;   314.5552;           31   
     342;   315.4305;           26   
     343;   316.3057;           31   
     344;   317.1810;           20   
     345;   318.0563;           25   
     346;   318.9316;           25   
     347;   319.8068;           23   
     348;   320.6821;           30   
     349;   321.5574;           26   
     350;   322.4327;           30   
     351;   323.3079;           42   
     352;   324.1832;           21   
     353;   325.0585;           25   
     354;   325.9338;           31   
     355;   326.8090;           23   
     356;   327.6843;           19   
     357;   328.5596;           35   
     358;   329.4349;           25   
     359;   330.3101;           25   
     360;   331.1854;           33   
     361;   332.0607;           26   
     362;   332.9360;           22   
     363;   333.8112;           30   
     364;   334.6865;           28   
     365;   335.5618;           23   
     366;   336.4371;           22   
     367;   337.3123;           20   
     368;   338.1876;           23   
     369;   339.0629;           16   
     370;   339.9382;           23   
     371;   340.8134;           27   
     372;   341.6887;           28   
     373;   342.5640;           19   
     374;   343.4393;           27   
     375;   344.3145;           27   
     376;   345.1898;           36   
     377;   346.0651;           16   
     378;   346.9404;           21   
     379;   347.8156;           27   
     380;   348.6909;           25   
     381;   349.5662;           17   
     382;   350.4415;           27   
     383;   351.3167;           22   
     384;   352.1920;           23   
     385;   353.0673;           24   
     386;   353.9426;           29   
     387;   354.8178;           23   
     388;   355.6931;           35   
     389;   356.5684;           22   
     390;   357.4437;           29   
     391;   358.3189;           25   
     392;   359.1942;           24   
     393;   360.0695;           30   
     394;   360.9448;           23   
     395;   361.8200;           17   
     396;   362.6953;           23   
     397;   363.5706;           23   
     398;   364.4459;           31   
     399;   365.3211;           24   
     400;   366.1964;           25   
     401;   367.0717;           20   
     402;   367.9470;           21   
     403;   368.8222;           21   
     404;   369.6975;           17   
     405;   370.5728;           27   
     406;   371.4481;           29   
     407;   372.3233;           18   
     408;   373.1986;           15   
     409;   374.0739;           22   
     410;   374.9492;           18   
     411;   375.8244;           26   
     412;   376.6997;           28   
     413;   377.5750;           31   
     414;   378.4503;           23   
     415;   379.3255;           23   
     416;   380.2008;           27   
     417;   381.0761;           25   
     418;   381.9514;           20   
     419;   382.8266;           24   
     420;   383.7019;           24   
     421;   384.5772;           19   
     422;   385.4525;           23   
     423;   386.3277;           20   
     424;   387.2030;           18   
     425;   388.0783;           26   
     426;   388.9536;           21   
     427;   389.8288;           29   
     428;   390.7041;           18   
     429;   391.5794;           21   
     430;   392.4547;           21   
     431;   393.3299;           23   
     432;   394.2052;           22   
     433;   395.0805;           22   
     434;   395.9558;           21   
     435;   396.8310;           22   
     436;   397.7063;           28   
     437;   398.5816;           18   
     438;   399.4569;           19   
     439;   400.3321;           19   
     440;   401.2074;           18   
     441;   402.0827;           17   
     442;   402.9580;           15   
     443;   403.8332;           20   
     444;   404.7085;           22   
     445;   405.5838;           21   
     446;   406.4591;           23   
     447;   407.3343;           21   
     448;   408.2096;           22   
     449;   409.0849;           18   
     450;   409.9602;           19   
     451;   410.8354;           31   
     452;   411.7107;           25   
     453;   412.5860;           27   
     454;   413.4613;           25   
     455;   414.3365;           19   
     456;   415.2118;           24   
     457;   416.0871;           23   
     458;   416.9624;           14   
     459;   417.8376;           24   
     460;   418.7129;           26   
     461;   419.5882;           26   
     462;   420.4635;           22   
     463;   421.3387;           13   
     464;   422.2140;           27   
     465;   423.0893;           26   
     466;   423.9646;           19   
     467;   424.8398;           19   
     468;   425.7151;           17   
     469;   426.5904;           19   
     470;   427.4657;           23   
     471;   428.3409;           20   
     472;   429.2162;           27   
     473;   430.0915;           21   
     474;   430.9668;           17   
     475;   431.8420;           16   
     476;   432.7173;           29   
     477;   433.5926;           22   
     478;   434.4679;           30   
     479;   435.3431;           20   
     480;   436.2184;           24   
     481;   437.0937;           24   
     482;   437.9690;           32   
     483;   438.8442;           12   
     484;   439.7195;           19   
     485;   440.5948;           26   
     486;   441.4701;           26   
     487;   442.3453;           14   
     488;   443.2206;           26   
     489;   444.0959;           26   
     490;   444.9712;           16   
     491;   445.8464;           23   
     492;   446.7217;           21   
     493;   447.5970;           20   
     494;   448.4723;           29   
     495;   449.3475;           16   
     496;   450.2228;           11   
     497;   451.0981;           25   
     498;   451.9734;           18   
     499;   452.8486;           14   
     500;   453.7239;           20   
     501;   454.5992;           20   
     502;   455.4745;           24   
     503;   456.3497;           26   
     504;   457.2250;           18   
     505;   458.1003;           15   
     506;   458.9756;           30   
     507;   459.8508;           17   
     508;   460.7261;           15   
     509;   461.6014;           19   
     510;   462.4767;           17   
     511;   463.3519;           16   
     512;   464.2272;           25   
