Kanal;   Energie(keV); Impulse
       1;    16.9617;          214   
       2;    17.8370;          242   
       3;    18.7122;          202   
       4;    19.5875;          196   
       5;    20.4628;          213   
       6;    21.3381;          189   
       7;    22.2133;          183   
       8;    23.0886;          217   
       9;    23.9639;          195   
      10;    24.8392;          178   
      11;    25.7144;          177   
      12;    26.5897;          156   
      13;    27.4650;          160   
      14;    28.3403;          171   
      15;    29.2155;          180   
      16;    30.0908;          178   
      17;    30.9661;          171   
      18;    31.8414;          154   
      19;    32.7166;          143   
      20;    33.5919;          168   
      21;    34.4672;          164   
      22;    35.3425;          164   
      23;    36.2177;          181   
      24;    37.0930;          190   
      25;    37.9683;          146   
      26;    38.8436;          163   
      27;    39.7188;          170   
      28;    40.5941;          160   
      29;    41.4694;          142   
      30;    42.3447;          162   
      31;    43.2199;          169   
      32;    44.0952;          156   
      33;    44.9705;          165   
      34;    45.8458;          156   
      35;    46.7210;          146   
      36;    47.5963;          150   
      37;    48.4716;          145   
      38;    49.3469;          126   
      39;    50.2221;          126   
      40;    51.0974;          145   
      41;    51.9727;          137   
      42;    52.8480;          153   
      43;    53.7232;          144   
      44;    54.5985;          140   
      45;    55.4738;          145   
      46;    56.3491;          153   
      47;    57.2243;          141   
      48;    58.0996;          144   
      49;    58.9749;          146   
      50;    59.8502;          149   
      51;    60.7254;          139   
      52;    61.6007;          172   
      53;    62.4760;          166   
      54;    63.3513;          152   
      55;    64.2265;          148   
      56;    65.1018;          156   
      57;    65.9771;          152   
      58;    66.8524;          172   
      59;    67.7276;          134   
      60;    68.6029;          175   
      61;    69.4782;          157   
      62;    70.3535;          172   
      63;    71.2287;          160   
      64;    72.1040;          153   
      65;    72.9793;          179   
      66;    73.8546;          182   
      67;    74.7298;          177   
      68;    75.6051;          221   
      69;    76.4804;          226   
      70;    77.3557;          219   
      71;    78.2309;          278   
      72;    79.1062;          181   
      73;    79.9815;          190   
      74;    80.8568;          188   
      75;    81.7320;          164   
      76;    82.6073;          179   
      77;    83.4826;          170   
      78;    84.3579;          210   
      79;    85.2331;          178   
      80;    86.1084;          204   
      81;    86.9837;          205   
      82;    87.8590;          237   
      83;    88.7342;          222   
      84;    89.6095;          207   
      85;    90.4848;          197   
      86;    91.3601;          206   
      87;    92.2353;          176   
      88;    93.1106;          180   
      89;    93.9859;          173   
      90;    94.8612;          210   
      91;    95.7364;          191   
      92;    96.6117;          218   
      93;    97.4870;          183   
      94;    98.3623;          190   
      95;    99.2375;          195   
      96;   100.1128;          214   
      97;   100.9881;          176   
      98;   101.8634;          189   
      99;   102.7386;          204   
     100;   103.6139;          185   
     101;   104.4892;          198   
     102;   105.3645;          198   
     103;   106.2397;          200   
     104;   107.1150;          212   
     105;   107.9903;          206   
     106;   108.8656;          198   
     107;   109.7408;          197   
     108;   110.6161;          213   
     109;   111.4914;          218   
     110;   112.3667;          188   
     111;   113.2419;          192   
     112;   114.1172;          201   
     113;   114.9925;          208   
     114;   115.8678;          202   
     115;   116.7430;          194   
     116;   117.6183;          197   
     117;   118.4936;          208   
     118;   119.3689;          195   
     119;   120.2441;          176   
     120;   121.1194;          183   
     121;   121.9947;          206   
     122;   122.8700;          214   
     123;   123.7452;          216   
     124;   124.6205;          200   
     125;   125.4958;          196   
     126;   126.3711;          182   
     127;   127.2463;          198   
     128;   128.1216;          192   
     129;   128.9969;          195   
     130;   129.8722;          178   
     131;   130.7474;          184   
     132;   131.6227;          214   
     133;   132.4980;          211   
     134;   133.3733;          191   
     135;   134.2485;          194   
     136;   135.1238;          177   
     137;   135.9991;          210   
     138;   136.8744;          186   
     139;   137.7496;          196   
     140;   138.6249;          195   
     141;   139.5002;          203   
     142;   140.3755;          177   
     143;   141.2507;          188   
     144;   142.1260;          197   
     145;   143.0013;          227   
     146;   143.8766;          188   
     147;   144.7518;          192   
     148;   145.6271;          192   
     149;   146.5024;          170   
     150;   147.3777;          191   
     151;   148.2529;          194   
     152;   149.1282;          200   
     153;   150.0035;          182   
     154;   150.8788;          183   
     155;   151.7540;          174   
     156;   152.6293;          166   
     157;   153.5046;          186   
     158;   154.3799;          203   
     159;   155.2551;          170   
     160;   156.1304;          163   
     161;   157.0057;          195   
     162;   157.8810;          195   
     163;   158.7562;          198   
     164;   159.6315;          227   
     165;   160.5068;          176   
     166;   161.3821;          178   
     167;   162.2573;          147   
     168;   163.1326;          191   
     169;   164.0079;          148   
     170;   164.8832;          177   
     171;   165.7584;          178   
     172;   166.6337;          183   
     173;   167.5090;          173   
     174;   168.3843;          178   
     175;   169.2595;          176   
     176;   170.1348;          167   
     177;   171.0101;          165   
     178;   171.8854;          176   
     179;   172.7606;          176   
     180;   173.6359;          194   
     181;   174.5112;          181   
     182;   175.3865;          187   
     183;   176.2617;          191   
     184;   177.1370;          176   
     185;   178.0123;          203   
     186;   178.8876;          178   
     187;   179.7628;          186   
     188;   180.6381;          180   
     189;   181.5134;          194   
     190;   182.3887;          193   
     191;   183.2639;          184   
     192;   184.1392;          172   
     193;   185.0145;          165   
     194;   185.8898;          194   
     195;   186.7650;          164   
     196;   187.6403;          182   
     197;   188.5156;          172   
     198;   189.3909;          203   
     199;   190.2661;          190   
     200;   191.1414;          192   
     201;   192.0167;          181   
     202;   192.8920;          170   
     203;   193.7672;          180   
     204;   194.6425;          161   
     205;   195.5178;          190   
     206;   196.3931;          185   
     207;   197.2683;          179   
     208;   198.1436;          168   
     209;   199.0189;          178   
     210;   199.8942;          169   
     211;   200.7694;          160   
     212;   201.6447;          165   
     213;   202.5200;          179   
     214;   203.3953;          178   
     215;   204.2705;          187   
     216;   205.1458;          159   
     217;   206.0211;          188   
     218;   206.8964;          155   
     219;   207.7716;          155   
     220;   208.6469;          179   
     221;   209.5222;          170   
     222;   210.3975;          184   
     223;   211.2727;          192   
     224;   212.1480;          173   
     225;   213.0233;          192   
     226;   213.8986;          161   
     227;   214.7738;          163   
     228;   215.6491;          166   
     229;   216.5244;          159   
     230;   217.3997;          149   
     231;   218.2749;          170   
     232;   219.1502;          147   
     233;   220.0255;          196   
     234;   220.9008;          163   
     235;   221.7760;          179   
     236;   222.6513;          172   
     237;   223.5266;          166   
     238;   224.4019;          159   
     239;   225.2771;          164   
     240;   226.1524;          160   
     241;   227.0277;          184   
     242;   227.9030;          151   
     243;   228.7782;          153   
     244;   229.6535;          167   
     245;   230.5288;          155   
     246;   231.4041;          162   
     247;   232.2793;          182   
     248;   233.1546;          152   
     249;   234.0299;          151   
     250;   234.9052;          175   
     251;   235.7804;          181   
     252;   236.6557;          144   
     253;   237.5310;          153   
     254;   238.4063;          161   
     255;   239.2815;          169   
     256;   240.1568;          147   
     257;   241.0321;          161   
     258;   241.9074;          170   
     259;   242.7826;          226   
     260;   243.6579;          192   
     261;   244.5332;          181   
     262;   245.4085;          187   
     263;   246.2837;          170   
     264;   247.1590;          162   
     265;   248.0343;          162   
     266;   248.9096;          159   
     267;   249.7848;          154   
     268;   250.6601;          136   
     269;   251.5354;          168   
     270;   252.4107;          162   
     271;   253.2859;          147   
     272;   254.1612;          154   
     273;   255.0365;          139   
     274;   255.9118;          157   
     275;   256.7870;          140   
     276;   257.6623;          180   
     277;   258.5376;          166   
     278;   259.4129;          132   
     279;   260.2881;          168   
     280;   261.1634;          153   
     281;   262.0387;          149   
     282;   262.9140;          158   
     283;   263.7892;          157   
     284;   264.6645;          150   
     285;   265.5398;          154   
     286;   266.4151;          110   
     287;   267.2903;          152   
     288;   268.1656;          177   
     289;   269.0409;          143   
     290;   269.9162;          139   
     291;   270.7914;          161   
     292;   271.6667;          152   
     293;   272.5420;          161   
     294;   273.4173;          151   
     295;   274.2925;          135   
     296;   275.1678;          148   
     297;   276.0431;          154   
     298;   276.9184;          141   
     299;   277.7936;          148   
     300;   278.6689;          138   
     301;   279.5442;          156   
     302;   280.4195;          173   
     303;   281.2947;          153   
     304;   282.1700;          149   
     305;   283.0453;          132   
     306;   283.9206;          141   
     307;   284.7958;          161   
     308;   285.6711;          158   
     309;   286.5464;          153   
     310;   287.4217;          142   
     311;   288.2969;          154   
     312;   289.1722;          168   
     313;   290.0475;          143   
     314;   290.9228;          140   
     315;   291.7980;          162   
     316;   292.6733;          144   
     317;   293.5486;          148   
     318;   294.4239;          158   
     319;   295.2991;          141   
     320;   296.1744;          169   
     321;   297.0497;          145   
     322;   297.9250;          155   
     323;   298.8002;          158   
     324;   299.6755;          187   
     325;   300.5508;          154   
     326;   301.4261;          179   
     327;   302.3013;          161   
     328;   303.1766;          171   
     329;   304.0519;          154   
     330;   304.9272;          153   
     331;   305.8024;          145   
     332;   306.6777;          142   
     333;   307.5530;          139   
     334;   308.4283;          149   
     335;   309.3035;          163   
     336;   310.1788;          150   
     337;   311.0541;          135   
     338;   311.9294;          167   
     339;   312.8046;          161   
     340;   313.6799;          176   
     341;   314.5552;          153   
     342;   315.4305;          167   
     343;   316.3057;          151   
     344;   317.1810;          143   
     345;   318.0563;          140   
     346;   318.9316;          163   
     347;   319.8068;          151   
     348;   320.6821;          188   
     349;   321.5574;          166   
     350;   322.4327;          167   
     351;   323.3079;          166   
     352;   324.1832;          136   
     353;   325.0585;          157   
     354;   325.9338;          186   
     355;   326.8090;          171   
     356;   327.6843;          150   
     357;   328.5596;          142   
     358;   329.4349;          176   
     359;   330.3101;          176   
     360;   331.1854;          138   
     361;   332.0607;          168   
     362;   332.9360;          162   
     363;   333.8112;          179   
     364;   334.6865;          162   
     365;   335.5618;          154   
     366;   336.4371;          163   
     367;   337.3123;          159   
     368;   338.1876;          145   
     369;   339.0629;          168   
     370;   339.9382;          141   
     371;   340.8134;          170   
     372;   341.6887;          149   
     373;   342.5640;          159   
     374;   343.4393;          148   
     375;   344.3145;          153   
     376;   345.1898;          138   
     377;   346.0651;          129   
     378;   346.9404;          137   
     379;   347.8156;          141   
     380;   348.6909;          121   
     381;   349.5662;          110   
     382;   350.4415;          110   
     383;   351.3167;          102   
     384;   352.1920;          122   
     385;   353.0673;          101   
     386;   353.9426;           99   
     387;   354.8178;          102   
     388;   355.6931;          116   
     389;   356.5684;          113   
     390;   357.4437;          153   
     391;   358.3189;          135   
     392;   359.1942;          103   
     393;   360.0695;          107   
     394;   360.9448;           98   
     395;   361.8200;           95   
     396;   362.6953;           86   
     397;   363.5706;           99   
     398;   364.4459;           86   
     399;   365.3211;          107   
     400;   366.1964;          104   
     401;   367.0717;           80   
     402;   367.9470;           78   
     403;   368.8222;           84   
     404;   369.6975;           78   
     405;   370.5728;           73   
     406;   371.4481;           84   
     407;   372.3233;           90   
     408;   373.1986;           75   
     409;   374.0739;           81   
     410;   374.9492;           79   
     411;   375.8244;           92   
     412;   376.6997;           73   
     413;   377.5750;           66   
     414;   378.4503;           92   
     415;   379.3255;           83   
     416;   380.2008;           80   
     417;   381.0761;           69   
     418;   381.9514;           64   
     419;   382.8266;           77   
     420;   383.7019;           72   
     421;   384.5772;           92   
     422;   385.4525;           80   
     423;   386.3277;           70   
     424;   387.2030;           86   
     425;   388.0783;           66   
     426;   388.9536;           72   
     427;   389.8288;           87   
     428;   390.7041;           76   
     429;   391.5794;           74   
     430;   392.4547;           78   
     431;   393.3299;           58   
     432;   394.2052;           70   
     433;   395.0805;           74   
     434;   395.9558;           67   
     435;   396.8310;           80   
     436;   397.7063;           71   
     437;   398.5816;           68   
     438;   399.4569;           65   
     439;   400.3321;           80   
     440;   401.2074;           70   
     441;   402.0827;           68   
     442;   402.9580;           68   
     443;   403.8332;           48   
     444;   404.7085;           53   
     445;   405.5838;           69   
     446;   406.4591;           60   
     447;   407.3343;           52   
     448;   408.2096;           62   
     449;   409.0849;           62   
     450;   409.9602;           66   
     451;   410.8354;           63   
     452;   411.7107;           57   
     453;   412.5860;           58   
     454;   413.4613;           52   
     455;   414.3365;           62   
     456;   415.2118;           54   
     457;   416.0871;           52   
     458;   416.9624;           50   
     459;   417.8376;           60   
     460;   418.7129;           62   
     461;   419.5882;           53   
     462;   420.4635;           43   
     463;   421.3387;           53   
     464;   422.2140;           57   
     465;   423.0893;           62   
     466;   423.9646;           64   
     467;   424.8398;           58   
     468;   425.7151;           39   
     469;   426.5904;           57   
     470;   427.4657;           50   
     471;   428.3409;           56   
     472;   429.2162;           49   
     473;   430.0915;           63   
     474;   430.9668;           62   
     475;   431.8420;           58   
     476;   432.7173;           58   
     477;   433.5926;           51   
     478;   434.4679;           60   
     479;   435.3431;           47   
     480;   436.2184;           40   
     481;   437.0937;           42   
     482;   437.9690;           42   
     483;   438.8442;           48   
     484;   439.7195;           57   
     485;   440.5948;           57   
     486;   441.4701;           57   
     487;   442.3453;           54   
     488;   443.2206;           38   
     489;   444.0959;           53   
     490;   444.9712;           57   
     491;   445.8464;           48   
     492;   446.7217;           41   
     493;   447.5970;           53   
     494;   448.4723;           46   
     495;   449.3475;           58   
     496;   450.2228;           45   
     497;   451.0981;           56   
     498;   451.9734;           45   
     499;   452.8486;           58   
     500;   453.7239;           63   
     501;   454.5992;           38   
     502;   455.4745;           51   
     503;   456.3497;           38   
     504;   457.2250;           38   
     505;   458.1003;           51   
     506;   458.9756;           44   
     507;   459.8508;           49   
     508;   460.7261;           45   
     509;   461.6014;           54   
     510;   462.4767;           60   
     511;   463.3519;           48   
     512;   464.2272;           46   
